wavelength,GFP
463,0.003	
464,0.003	
465,0.003	
466,0.004	
467,0.004	
468,0.005	
469,0.006	
470,0.007	
471,0.009	
472,0.010	
473,0.012	
474,0.015	
475,0.018	
476,0.022	
477,0.027	
478,0.032	
479,0.038	
480,0.046	
481,0.055	
482,0.065	
483,0.078	
484,0.092	
485,0.109	
486,0.127	
487,0.148	
488,0.172	
489,0.198	
490,0.227	
491,0.259	
492,0.295	
493,0.331	
494,0.371	
495,0.416	
496,0.460	
497,0.509	
498,0.559	
499,0.610	
500,0.665	
501,0.718	
502,0.767	
503,0.816	
504,0.862	
505,0.903	
506,0.935	
507,0.966	
508,0.988	
509,0.999	
510,1.000	
511,1.000	
512,0.989	
513,0.970	
514,0.941	
515,0.906	
516,0.871	
517,0.834	
518,0.793	
519,0.751	
520,0.715	
521,0.680	
522,0.650	
523,0.621	
524,0.597	
525,0.570	
526,0.547	
527,0.528	
528,0.508	
529,0.490	
530,0.473	
531,0.464	
532,0.450	
533,0.439	
534,0.430	
535,0.422	
536,0.410	
537,0.401	
538,0.394	
539,0.387	
540,0.381	
541,0.369	
542,0.362	
543,0.358	
544,0.348	
545,0.339	
546,0.330	
547,0.322	
548,0.312	
549,0.302	
550,0.291
551,0.280
552,0.267
553,0.256
554,0.245
555,0.234
556,0.224
557,0.216
558,0.207
559,0.196
560,0.186
561,0.181
562,0.171
563,0.162
564,0.155
565,0.149
566,0.141
567,0.135
568,0.128
569,0.122
570,0.117
571,0.114
572,0.108
573,0.104
574,0.097
575,0.096
576,0.092
577,0.088
578,0.084
579,0.081
580,0.079
581,0.076
582,0.074
583,0.071
584,0.069
585,0.065
586,0.064
587,0.063
588,0.059
589,0.059
590,0.056
591,0.054
592,0.053
593,0.050
594,0.049
595,0.047
596,0.046
597,0.044
598,0.042
599,0.041
600,0.039
601,0.037
602,0.036
603,0.036
604,0.034
605,0.032
606,0.032
607,0.030
608,0.029
609,0.028
610,0.027
611,0.026
612,0.025
613,0.024
614,0.022
615,0.022
616,0.022
617,0.021
618,0.020
619,0.019
620,0.018
621,0.018
622,0.017
623,0.017
624,0.016
625,0.015
626,0.015
627,0.015
628,0.015
629,0.014
630,0.013
631,0.014
632,0.013
633,0.013
634,0.012
635,0.012
636,0.012
637,0.011
638,0.011
639,0.011
640,0.011
641,0.010
642,0.010
643,0.010
644,0.010
645,0.010
646,0.010
647,0.009
648,0.010
649,0.009
650,0.009
651,0.008
652,0.008
653,0.008
654,0.008
655,0.008
656,0.008
657,0.008
658,0.008
659,0.008
660,0.007
661,0.008
662,0.008
663,0.007
664,0.007
665,0.007
666,0.007
667,0.007
668,0.007
669,0.007
670,0.006
671,0.007
672,0.007
673,0.006
674,0.007
675,0.006
676,0.007
677,0.007
678,0.007
679,0.007
680,0.006
681,0.007
682,0.006
683,0.007
684,0.007
685,0.007
686,0.007
687,0.006
688,0.007
689,0.006
690,0.007
691,0.006
692,0.007
693,0.007
694,0.006
695,0.006
696,0.006
697,0.007
698,0.007
699,0.006
700,0.006
