#Typical Measured Spectrum of Semrock FF573-Di01 Optical Filter	
#For wavelengths between 320 and 1120 nm, values near or below 3e-7 (Optical Density 6.5) are measurement noise limited.
#For wavelengths < 320 nm and > 1120 nm, values near or below 3e-6 (Optical Density 5.5) are measurement noise limited. 
#Data format:  Wavelength (nm) <tab> Transmission (0 to 1)
#Type: dichroic,
#Name: Semrock FF573-Di01
wavelength,transmission
340.0, 0.1727
340.2, 0.14468
340.4, 0.11075
340.6, 0.07931
340.8, 0.06038
341.0, 0.05226
341.2, 0.05217
341.4, 0.06097
341.6, 0.08212
341.8, 0.11638
342.0, 0.15205
342.2, 0.17597
342.4, 0.18059
342.6, 0.16969
342.8, 0.14245
343.0, 0.10199
343.2, 0.06207
343.4, 0.03484
343.6, 0.02102
343.8, 0.01389
344.0, 0.01018
344.2, 0.00798
344.4, 0.00648
344.6, 0.00563
344.8, 0.00509
345.0, 0.00471
345.2, 0.00439
345.4, 0.00416
345.6, 0.00411
345.8, 0.00418
346.0, 0.00427
346.2, 0.00414
346.4, 0.00407
346.6, 0.00395
346.8, 0.00364
347.0, 0.00343
347.2, 0.00288
347.4, 0.00255
347.6, 0.00232
347.8, 0.00197
348.0, 0.00171
348.2, 0.00159
348.4, 0.00135
348.6, 0.0012
348.8, 0.00109
349.0, 0.00101
349.2, 9.4795e-04
349.4, 9.6653e-04
349.6, 9.564e-04
349.8, 9.195e-04
350.0, 9.4974e-04
350.2, 8.4932e-04
350.4, 7.8736e-04
350.6, 7.5525e-04
350.8, 6.6798e-04
351.0, 7.0117e-04
351.2, 5.4751e-04
351.4, 4.7169e-04
351.6, 4.0716e-04
351.8, 3.5371e-04
352.0, 1.688e-04
352.2, 1.2521e-04
352.4, 1.8127e-04
352.6, 8.9244e-05
352.8, 4.9737e-05
353.0, 4.9817e-05
353.2, 4.9695e-05
353.4, 4.9345e-05
353.6, 4.867e-05
353.8, 4.8033e-05
354.0, 4.7071e-05
354.2, 4.6185e-05
354.4, 4.5303e-05
354.6, 4.4478e-05
354.8, 4.3664e-05
355.0, 4.3072e-05
355.2, 4.2742e-05
355.4, 4.2353e-05
355.6, 4.2171e-05
355.8, 4.2181e-05
356.0, 1.7512e-04
356.2, 5.0465e-04
356.4, 0.00108
356.6, 0.00187
356.8, 0.00274
357.0, 0.0039
357.2, 0.00486
357.4, 0.00589
357.6, 0.00653
357.8, 0.00697
358.0, 0.00715
358.2, 0.00712
358.4, 0.00682
358.6, 0.00683
358.8, 0.00679
359.0, 0.00726
359.2, 0.00775
359.4, 0.00849
359.6, 0.00942
359.8, 0.01024
360.0, 0.01102
360.2, 0.01114
360.4, 0.01104
360.6, 0.01096
360.8, 0.01058
361.0, 0.00985
361.2, 0.0095
361.4, 0.00905
361.6, 0.00904
361.8, 0.00886
362.0, 0.00905
362.2, 0.00973
362.4, 0.01049
362.6, 0.01164
362.8, 0.01275
363.0, 0.01442
363.2, 0.01556
363.4, 0.01643
363.6, 0.01758
363.8, 0.01811
364.0, 0.01848
364.2, 0.01841
364.4, 0.0183
364.6, 0.0181
364.8, 0.0183
365.0, 0.01842
365.2, 0.01897
365.4, 0.01974
365.6, 0.02005
365.8, 0.02098
366.0, 0.02141
366.2, 0.02179
366.4, 0.02147
366.6, 0.02109
366.8, 0.02055
367.0, 0.01922
367.2, 0.01828
367.4, 0.01728
367.6, 0.01617
367.8, 0.01554
368.0, 0.01498
368.2, 0.01453
368.4, 0.01443
368.6, 0.01425
368.8, 0.0142
369.0, 0.01392
369.2, 0.01367
369.4, 0.01308
369.6, 0.01219
369.8, 0.0115
370.0, 0.01049
370.2, 0.00971
370.4, 0.0085
370.6, 0.00754
370.8, 0.0069
371.0, 0.00615
371.2, 0.00577
371.4, 0.00531
371.6, 0.00517
371.8, 0.00485
372.0, 0.00465
372.2, 0.00475
372.4, 0.00451
372.6, 0.00429
372.8, 0.00417
373.0, 0.004
373.2, 0.00373
373.4, 0.00344
373.6, 0.0031
373.8, 0.00278
374.0, 0.00243
374.2, 0.00235
374.4, 0.00205
374.6, 0.00207
374.8, 0.00189
375.0, 0.00186
375.2, 0.00175
375.4, 0.00176
375.6, 0.00181
375.8, 0.00186
376.0, 0.00202
376.2, 0.00199
376.4, 0.00229
376.6, 0.00244
376.8, 0.00254
377.0, 0.00277
377.2, 0.00269
377.4, 0.0028
377.6, 0.00274
377.8, 0.0028
378.0, 0.00262
378.2, 0.00248
378.4, 0.00231
378.6, 0.00205
378.8, 0.00177
379.0, 0.00177
379.2, 0.00152
379.4, 0.00141
379.6, 0.00142
379.8, 0.00137
380.0, 0.00137
380.2, 0.00147
380.4, 0.00156
380.6, 0.00149
380.8, 0.0017
381.0, 0.00204
381.2, 0.00228
381.4, 0.00248
381.6, 0.00291
381.8, 0.00319
382.0, 0.00355
382.2, 0.004
382.4, 0.00403
382.6, 0.00412
382.8, 0.00412
383.0, 0.00422
383.2, 0.00431
383.4, 0.00404
383.6, 0.00407
383.8, 0.004
384.0, 0.00392
384.2, 0.00403
384.4, 0.00416
384.6, 0.00436
384.8, 0.00467
385.0, 0.00526
385.2, 0.00571
385.4, 0.00648
385.6, 0.00716
385.8, 0.00813
386.0, 0.00897
386.2, 0.0096
386.4, 0.01023
386.6, 0.01062
386.8, 0.01063
387.0, 0.01047
387.2, 0.01041
387.4, 0.00989
387.6, 0.00934
387.8, 0.00891
388.0, 0.00855
388.2, 0.00827
388.4, 0.0083
388.6, 0.0082
388.8, 0.0085
389.0, 0.00886
389.2, 0.00947
389.4, 0.01009
389.6, 0.01077
389.8, 0.01135
390.0, 0.01178
390.2, 0.01192
390.4, 0.01163
390.6, 0.01142
390.8, 0.0106
391.0, 0.00974
391.2, 0.00896
391.4, 0.00797
391.6, 0.0071
391.8, 0.0062
392.0, 0.00653
392.2, 0.00619
392.4, 0.0057
392.6, 0.0053
392.8, 0.00519
393.0, 0.0049
393.2, 0.00483
393.4, 0.00494
393.6, 0.00488
393.8, 0.0048
394.0, 0.005
394.2, 0.005
394.4, 0.00518
394.6, 0.00524
394.8, 0.00525
395.0, 0.00534
395.2, 0.00494
395.4, 0.00505
395.6, 0.00494
395.8, 0.0047
396.0, 0.00443
396.2, 0.00401
396.4, 0.00389
396.6, 0.00367
396.8, 0.00352
397.0, 0.00354
397.2, 0.00323
397.4, 0.003
397.6, 0.00316
397.8, 0.003
398.0, 0.00305
398.2, 0.00309
398.4, 0.0032
398.6, 0.00317
398.8, 0.00325
399.0, 0.00329
399.2, 0.00321
399.4, 0.00327
399.6, 0.00354
399.8, 0.00354
400.0, 0.00347
400.2, 0.00346
400.4, 0.00362
400.6, 0.0036
400.8, 0.00381
401.0, 0.00387
401.2, 0.00377
401.4, 0.00393
401.6, 0.00403
401.8, 0.00406
402.0, 0.00409
402.2, 0.00414
402.4, 0.00444
402.6, 0.00464
402.8, 0.00469
403.0, 0.0051
403.2, 0.00547
403.4, 0.00587
403.6, 0.00625
403.8, 0.00721
404.0, 0.00796
404.2, 0.009
404.4, 0.01005
404.6, 0.01116
404.8, 0.01232
405.0, 0.01343
405.2, 0.01451
405.4, 0.01544
405.6, 0.01621
405.8, 0.01676
406.0, 0.01703
406.2, 0.01677
406.4, 0.01677
406.6, 0.01629
406.8, 0.01575
407.0, 0.01518
407.2, 0.01466
407.4, 0.01412
407.6, 0.0139
407.8, 0.0136
408.0, 0.01393
408.2, 0.01391
408.4, 0.01415
408.6, 0.01425
408.8, 0.01477
409.0, 0.01511
409.2, 0.01511
409.4, 0.01535
409.6, 0.01513
409.8, 0.01475
410.0, 0.01409
410.2, 0.01324
410.4, 0.01228
410.6, 0.01126
410.8, 0.01003
411.0, 0.00883
411.2, 0.00773
411.4, 0.00671
411.6, 0.00606
411.8, 0.00526
412.0, 0.00481
412.2, 0.00431
412.4, 0.00384
412.6, 0.00372
412.8, 0.00357
413.0, 0.00338
413.2, 0.00348
413.4, 0.0035
413.6, 0.00362
413.8, 0.00379
414.0, 0.00409
414.2, 0.00438
414.4, 0.00467
414.6, 0.00505
414.8, 0.00535
415.0, 0.00567
415.2, 0.00592
415.4, 0.00614
415.6, 0.00602
415.8, 0.00603
416.0, 0.00589
416.2, 0.00573
416.4, 0.00548
416.6, 0.00525
416.8, 0.00491
417.0, 0.00456
417.2, 0.00407
417.4, 0.00382
417.6, 0.00357
417.8, 0.0033
418.0, 0.00304
418.2, 0.00288
418.4, 0.00267
418.6, 0.00248
418.8, 0.0025
419.0, 0.00246
419.2, 0.00248
419.4, 0.00263
419.6, 0.00298
419.8, 0.00333
420.0, 0.00398
420.2, 0.00489
420.4, 0.00618
420.6, 0.0077
420.8, 0.00958
421.0, 0.01111
421.2, 0.01256
421.4, 0.01357
421.6, 0.0141
421.8, 0.01402
422.0, 0.01351
422.2, 0.01274
422.4, 0.01131
422.6, 0.00997
422.8, 0.00829
423.0, 0.00679
423.2, 0.00563
423.4, 0.00465
423.6, 0.00388
423.8, 0.00351
424.0, 0.00325
424.2, 0.00303
424.4, 0.00303
424.6, 0.00289
424.8, 0.00306
425.0, 0.00329
425.2, 0.00352
425.4, 0.00402
425.6, 0.00477
425.8, 0.00555
426.0, 0.00683
426.2, 0.00822
426.4, 0.00981
426.6, 0.01126
426.8, 0.01265
427.0, 0.01371
427.2, 0.0143
427.4, 0.0142
427.6, 0.01361
427.8, 0.01267
428.0, 0.01143
428.2, 0.01006
428.4, 0.00869
428.6, 0.00754
428.8, 0.00667
429.0, 0.00612
429.2, 0.00571
429.4, 0.00558
429.6, 0.00552
429.8, 0.00572
430.0, 0.00609
430.2, 0.00653
430.4, 0.00712
430.6, 0.00769
430.8, 0.00822
431.0, 0.00869
431.2, 0.00873
431.4, 0.00872
431.6, 0.00847
431.8, 0.00793
432.0, 0.00734
432.2, 0.00664
432.4, 0.00578
432.6, 0.00495
432.8, 0.00414
433.0, 0.00338
433.2, 0.00287
433.4, 0.00244
433.6, 0.00207
433.8, 0.00182
434.0, 0.00165
434.2, 0.00151
434.4, 0.00139
434.6, 0.00132
434.8, 0.00132
435.0, 0.00128
435.2, 0.00133
435.4, 0.00133
435.6, 0.00142
435.8, 0.00149
436.0, 0.00163
436.2, 0.00177
436.4, 0.00197
436.6, 0.0022
436.8, 0.0026
437.0, 0.00299
437.2, 0.00345
437.4, 0.00384
437.6, 0.00426
437.8, 0.00458
438.0, 0.00472
438.2, 0.00484
438.4, 0.00479
438.6, 0.00464
438.8, 0.0044
439.0, 0.00403
439.2, 0.00367
439.4, 0.0032
439.6, 0.00279
439.8, 0.00251
440.0, 0.00218
440.2, 0.00195
440.4, 0.00174
440.6, 0.00157
440.8, 0.00155
441.0, 0.00142
441.2, 0.00141
441.4, 0.00148
441.6, 0.00143
441.8, 0.00147
442.0, 0.00149
442.2, 0.00166
442.4, 0.00176
442.6, 0.00196
442.8, 0.00214
443.0, 0.00246
443.2, 0.00288
443.4, 0.00348
443.6, 0.00421
443.8, 0.00539
444.0, 0.00689
444.2, 0.00888
444.4, 0.01124
444.6, 0.01394
444.8, 0.0165
445.0, 0.01886
445.2, 0.02104
445.4, 0.02264
445.6, 0.02367
445.8, 0.02421
446.0, 0.02419
446.2, 0.02372
446.4, 0.02265
446.6, 0.02152
446.8, 0.02025
447.0, 0.01923
447.2, 0.01841
447.4, 0.01803
447.6, 0.01805
447.8, 0.01832
448.0, 0.01879
448.2, 0.01928
448.4, 0.01967
448.6, 0.02005
448.8, 0.0203
449.0, 0.02016
449.2, 0.01991
449.4, 0.01934
449.6, 0.01848
449.8, 0.01756
450.0, 0.01623
450.2, 0.01489
450.4, 0.01354
450.6, 0.01215
450.8, 0.01096
451.0, 0.00982
451.2, 0.00904
451.4, 0.00837
451.6, 0.00797
451.8, 0.00781
452.0, 0.00787
452.2, 0.00823
452.4, 0.00881
452.6, 0.00978
452.8, 0.01098
453.0, 0.01243
453.2, 0.01385
453.4, 0.01509
453.6, 0.01611
453.8, 0.01673
454.0, 0.01694
454.2, 0.01664
454.4, 0.01573
454.6, 0.01463
454.8, 0.013
455.0, 0.01131
455.2, 0.00926
455.4, 0.00745
455.6, 0.00579
455.8, 0.00451
456.0, 0.00355
456.2, 0.00287
456.4, 0.00234
456.6, 0.00198
456.8, 0.00173
457.0, 0.00149
457.2, 0.00136
457.4, 0.00122
457.6, 0.00113
457.8, 0.00106
458.0, 0.00106
458.2, 0.00103
458.4, 9.8499e-04
458.6, 0.00105
458.8, 0.00107
459.0, 0.00103
459.2, 0.00109
459.4, 0.00115
459.6, 0.00125
459.8, 0.00141
460.0, 0.0016
460.2, 0.00189
460.4, 0.0023
460.6, 0.00281
460.8, 0.00344
461.0, 0.00417
461.2, 0.00494
461.4, 0.00583
461.6, 0.0067
461.8, 0.00745
462.0, 0.00832
462.2, 0.00896
462.4, 0.0096
462.6, 0.00987
462.8, 0.00979
463.0, 0.00949
463.2, 0.00889
463.4, 0.00797
463.6, 0.00686
463.8, 0.00549
464.0, 0.00418
464.2, 0.00309
464.4, 0.0024
464.6, 0.00196
464.8, 0.00168
465.0, 0.00148
465.2, 0.00136
465.4, 0.00129
465.6, 0.00125
465.8, 0.00119
466.0, 0.00113
466.2, 0.00113
466.4, 0.00117
466.6, 0.00117
466.8, 0.0012
467.0, 0.00127
467.2, 0.00136
467.4, 0.00143
467.6, 0.00161
467.8, 0.00177
468.0, 0.00216
468.2, 0.00273
468.4, 0.00322
468.6, 0.00369
468.8, 0.00469
469.0, 0.00596
469.2, 0.00768
469.4, 0.00986
469.6, 0.01268
469.8, 0.01602
470.0, 0.01964
470.2, 0.02335
470.4, 0.02665
470.6, 0.02936
470.8, 0.03157
471.0, 0.03308
471.2, 0.03385
471.4, 0.0339
471.6, 0.03316
471.8, 0.03153
472.0, 0.02985
472.2, 0.02756
472.4, 0.0257
472.6, 0.02391
472.8, 0.0223
473.0, 0.02123
473.2, 0.02037
473.4, 0.02
473.6, 0.01973
473.8, 0.01927
474.0, 0.01883
474.2, 0.01829
474.4, 0.01764
474.6, 0.01699
474.8, 0.01617
475.0, 0.01531
475.2, 0.01416
475.4, 0.01314
475.6, 0.01195
475.8, 0.01099
476.0, 0.00995
476.2, 0.00898
476.4, 0.00818
476.6, 0.00757
476.8, 0.00701
477.0, 0.00666
477.2, 0.00635
477.4, 0.00595
477.6, 0.00598
477.8, 0.00604
478.0, 0.00632
478.2, 0.00664
478.4, 0.00707
478.6, 0.00759
478.8, 0.00835
479.0, 0.00929
479.2, 0.01025
479.4, 0.01122
479.6, 0.01197
479.8, 0.01266
480.0, 0.01313
480.2, 0.01332
480.4, 0.01314
480.6, 0.01268
480.8, 0.01194
481.0, 0.01095
481.2, 0.00998
481.4, 0.0088
481.6, 0.00769
481.8, 0.00655
482.0, 0.00551
482.2, 0.00482
482.4, 0.00432
482.6, 0.00402
482.8, 0.0037
483.0, 0.00358
483.2, 0.00338
483.4, 0.00337
483.6, 0.0032
483.8, 0.00296
484.0, 0.00273
484.2, 0.00237
484.4, 0.00217
484.6, 0.00197
484.8, 0.0017
485.0, 0.00146
485.2, 0.00128
485.4, 0.00121
485.6, 0.00122
485.8, 0.00123
486.0, 0.00117
486.2, 0.00119
486.4, 0.00117
486.6, 0.00135
486.8, 0.00148
487.0, 0.00153
487.2, 0.00169
487.4, 0.00184
487.6, 0.00207
487.8, 0.00234
488.0, 0.00261
488.2, 0.00285
488.4, 0.00317
488.6, 0.00339
488.8, 0.0036
489.0, 0.00396
489.2, 0.00415
489.4, 0.0043
489.6, 0.00422
489.8, 0.00419
490.0, 0.00408
490.2, 0.00397
490.4, 0.00375
490.6, 0.00343
490.8, 0.00309
491.0, 0.00274
491.2, 0.00251
491.4, 0.00222
491.6, 0.00191
491.8, 0.00163
492.0, 0.00142
492.2, 0.00131
492.4, 0.00117
492.6, 0.00113
492.8, 0.00101
493.0, 8.8813e-04
493.2, 8.5829e-04
493.4, 8.2435e-04
493.6, 8.3532e-04
493.8, 7.6785e-04
494.0, 7.5794e-04
494.2, 6.8201e-04
494.4, 7.2295e-04
494.6, 7.687e-04
494.8, 7.7159e-04
495.0, 7.6295e-04
495.2, 7.3351e-04
495.4, 8.0143e-04
495.6, 8.3813e-04
495.8, 8.9316e-04
496.0, 0.001
496.2, 9.6358e-04
496.4, 0.00106
496.6, 0.00118
496.8, 0.00136
497.0, 0.00147
497.2, 0.00165
497.4, 0.00184
497.6, 0.00209
497.8, 0.00238
498.0, 0.00279
498.2, 0.00326
498.4, 0.00365
498.6, 0.00412
498.8, 0.00454
499.0, 0.00508
499.2, 0.00552
499.4, 0.00589
499.6, 0.00609
499.8, 0.00618
500.0, 0.00626
500.2, 0.00634
500.4, 0.00609
500.6, 0.00577
500.8, 0.0055
501.0, 0.00511
501.2, 0.00463
501.4, 0.00431
501.6, 0.00394
501.8, 0.00353
502.0, 0.00326
502.2, 0.00302
502.4, 0.00279
502.6, 0.00258
502.8, 0.00251
503.0, 0.00239
503.2, 0.00228
503.4, 0.00229
503.6, 0.00228
503.8, 0.00224
504.0, 0.00222
504.2, 0.00229
504.4, 0.00233
504.6, 0.00235
504.8, 0.00248
505.0, 0.00258
505.2, 0.00264
505.4, 0.0028
505.6, 0.00302
505.8, 0.00324
506.0, 0.00344
506.2, 0.00381
506.4, 0.00415
506.6, 0.00452
506.8, 0.00506
507.0, 0.00572
507.2, 0.00639
507.4, 0.00718
507.6, 0.00823
507.8, 0.00938
508.0, 0.01071
508.2, 0.01226
508.4, 0.01403
508.6, 0.01594
508.8, 0.0181
509.0, 0.02039
509.2, 0.02271
509.4, 0.02502
509.6, 0.02737
509.8, 0.02943
510.0, 0.03118
510.2, 0.0328
510.4, 0.03386
510.6, 0.03467
510.8, 0.03508
511.0, 0.03505
511.2, 0.03476
511.4, 0.03412
511.6, 0.03311
511.8, 0.0321
512.0, 0.03103
512.2, 0.02989
512.4, 0.0286
512.6, 0.02735
512.8, 0.02624
513.0, 0.02527
513.2, 0.02417
513.4, 0.02315
513.6, 0.02236
513.8, 0.02162
514.0, 0.02081
514.2, 0.02007
514.4, 0.01956
514.6, 0.01896
514.8, 0.01845
515.0, 0.01798
515.2, 0.01755
515.4, 0.01718
515.6, 0.0168
515.8, 0.01656
516.0, 0.01637
516.2, 0.01621
516.4, 0.01628
516.6, 0.01619
516.8, 0.01615
517.0, 0.01619
517.2, 0.0163
517.4, 0.01653
517.6, 0.01669
517.8, 0.0171
518.0, 0.01747
518.2, 0.01785
518.4, 0.01849
518.6, 0.01907
518.8, 0.01976
519.0, 0.02048
519.2, 0.02145
519.4, 0.02237
519.6, 0.02341
519.8, 0.02448
520.0, 0.02553
520.2, 0.02655
520.4, 0.02739
520.6, 0.02809
520.8, 0.02857
521.0, 0.02889
521.2, 0.02903
521.4, 0.02873
521.6, 0.02817
521.8, 0.02736
522.0, 0.02633
522.2, 0.02499
522.4, 0.02358
522.6, 0.02206
522.8, 0.02046
523.0, 0.01887
523.2, 0.01746
523.4, 0.01605
523.6, 0.01481
523.8, 0.01384
524.0, 0.01304
524.2, 0.01247
524.4, 0.0123
524.6, 0.01228
524.8, 0.01239
525.0, 0.01246
525.2, 0.01254
525.4, 0.01243
525.6, 0.01233
525.8, 0.01211
526.0, 0.01188
526.2, 0.01148
526.4, 0.01105
526.6, 0.01053
526.8, 0.00987
527.0, 0.00911
527.2, 0.00834
527.4, 0.00762
527.6, 0.00684
527.8, 0.00617
528.0, 0.00575
528.2, 0.00542
528.4, 0.00532
528.6, 0.00539
528.8, 0.00555
529.0, 0.00574
529.2, 0.00615
529.4, 0.00667
529.6, 0.00729
529.8, 0.00807
530.0, 0.00913
530.2, 0.01037
530.4, 0.01182
530.6, 0.01352
530.8, 0.01536
531.0, 0.01712
531.2, 0.01859
531.4, 0.01984
531.6, 0.02062
531.8, 0.02096
532.0, 0.02092
532.2, 0.02061
532.4, 0.01966
532.6, 0.0185
532.8, 0.01698
533.0, 0.0152
533.2, 0.01322
533.4, 0.01129
533.6, 0.00935
533.8, 0.00761
534.0, 0.00618
534.2, 0.00502
534.4, 0.00408
534.6, 0.00337
534.8, 0.00285
535.0, 0.00244
535.2, 0.00206
535.4, 0.00183
535.6, 0.00163
535.8, 0.00145
536.0, 0.00131
536.2, 0.00121
536.4, 0.00109
536.6, 0.00102
536.8, 9.578e-04
537.0, 8.5006e-04
537.2, 8.1053e-04
537.4, 7.7468e-04
537.6, 7.3905e-04
537.8, 7.1267e-04
538.0, 6.6646e-04
538.2, 6.7092e-04
538.4, 6.3723e-04
538.6, 5.9243e-04
538.8, 6.0468e-04
539.0, 6.1877e-04
539.2, 5.7647e-04
539.4, 5.9782e-04
539.6, 5.9856e-04
539.8, 5.5429e-04
540.0, 5.4857e-04
540.2, 5.9144e-04
540.4, 5.511e-04
540.6, 5.4249e-04
540.8, 5.8067e-04
541.0, 5.6636e-04
541.2, 5.436e-04
541.4, 5.6785e-04
541.6, 5.8429e-04
541.8, 5.6759e-04
542.0, 5.8406e-04
542.2, 6.2219e-04
542.4, 6.2201e-04
542.6, 6.1536e-04
542.8, 6.3989e-04
543.0, 0.0022
543.2, 0.00314
543.4, 0.00316
543.6, 0.00322
543.8, 0.00318
544.0, 0.00322
544.2, 0.00327
544.4, 0.00328
544.6, 0.00333
544.8, 0.00342
545.0, 0.00344
545.2, 0.00349
545.4, 0.00361
545.6, 0.00372
545.8, 0.00381
546.0, 0.0039
546.2, 0.00406
546.4, 0.00423
546.6, 0.00429
546.8, 0.00438
547.0, 0.00448
547.2, 0.00458
547.4, 0.0046
547.6, 0.00471
547.8, 0.00472
548.0, 0.00473
548.2, 0.00474
548.4, 0.00471
548.6, 0.00466
548.8, 0.00463
549.0, 0.00452
549.2, 0.00441
549.4, 0.00432
549.6, 0.00422
549.8, 0.00408
550.0, 0.00397
550.2, 0.00385
550.4, 0.00373
550.6, 0.00363
550.8, 0.00356
551.0, 0.00346
551.2, 0.00338
551.4, 0.00333
551.6, 0.00329
551.8, 0.00323
552.0, 0.00318
552.2, 0.00315
552.4, 0.00309
552.6, 0.00308
552.8, 0.00306
553.0, 0.00308
553.2, 0.00301
553.4, 0.003
553.6, 0.00304
553.8, 0.003
554.0, 0.00296
554.2, 0.00298
554.4, 0.00297
554.6, 0.00296
554.8, 0.00293
555.0, 0.00299
555.2, 0.00295
555.4, 0.00293
555.6, 0.00294
555.8, 0.00294
556.0, 0.00295
556.2, 0.00296
556.4, 0.00297
556.6, 0.00295
556.8, 0.00297
557.0, 0.00301
557.2, 0.00303
557.4, 0.00299
557.6, 0.00304
557.8, 0.00305
558.0, 0.00306
558.2, 0.00306
558.4, 0.00314
558.6, 0.00314
558.8, 0.00317
559.0, 0.00321
559.2, 0.00324
559.4, 0.0033
559.6, 0.0033
559.8, 0.00338
560.0, 0.00341
560.2, 0.00343
560.4, 0.00354
560.6, 0.0036
560.8, 0.00367
561.0, 0.00373
561.2, 0.00385
561.4, 0.00392
561.6, 0.00399
561.8, 0.00415
562.0, 0.00425
562.2, 0.00436
562.4, 0.00453
562.6, 0.00471
562.8, 0.00488
563.0, 0.00511
563.2, 0.00539
563.4, 0.00564
563.6, 0.00595
563.8, 0.00628
564.0, 0.00669
564.2, 0.00715
564.4, 0.00768
564.6, 0.0083
564.8, 0.00894
565.0, 0.0097
565.2, 0.01059
565.4, 0.01163
565.6, 0.01279
565.8, 0.01413
566.0, 0.01564
566.2, 0.01735
566.4, 0.0194
566.6, 0.02162
566.8, 0.02412
567.0, 0.02715
567.2, 0.03052
567.4, 0.0343
567.6, 0.03856
567.8, 0.04343
568.0, 0.04861
568.2, 0.05448
568.4, 0.06113
568.6, 0.06816
568.8, 0.07613
569.0, 0.08451
569.2, 0.09321
569.4, 0.10285
569.6, 0.11324
569.8, 0.12409
570.0, 0.13564
570.2, 0.1471
570.4, 0.1591
570.6, 0.17158
570.8, 0.18467
571.0, 0.19805
571.2, 0.21102
571.4, 0.22413
571.6, 0.23794
571.8, 0.25209
572.0, 0.26609
572.2, 0.28039
572.4, 0.29411
572.6, 0.30806
572.8, 0.32176
573.0, 0.33451
573.2, 0.34739
573.4, 0.36094
573.6, 0.37423
573.8, 0.38639
574.0, 0.39724
574.2, 0.40727
574.4, 0.41721
574.6, 0.42676
574.8, 0.43537
575.0, 0.44343
575.2, 0.45158
575.4, 0.45788
575.6, 0.46374
575.8, 0.46748
576.0, 0.47143
576.2, 0.47526
576.4, 0.47831
576.6, 0.48015
576.8, 0.48512
577.0, 0.49065
577.2, 0.49491
577.4, 0.50065
577.6, 0.50684
577.8, 0.51708
578.0, 0.53038
578.2, 0.54665
578.4, 0.56395
578.6, 0.58397
578.8, 0.60868
579.0, 0.63705
579.2, 0.66793
579.4, 0.69729
579.6, 0.72925
579.8, 0.76341
580.0, 0.79456
580.2, 0.82335
580.4, 0.85202
580.6, 0.8763
580.8, 0.8983
581.0, 0.9168
581.2, 0.9316
581.4, 0.94281
581.6, 0.95286
581.8, 0.95839
582.0, 0.96154
582.2, 0.96318
582.4, 0.96333
582.6, 0.96422
582.8, 0.96448
583.0, 0.96371
583.2, 0.96333
583.4, 0.96541
583.6, 0.96775
583.8, 0.96747
584.0, 0.96572
584.2, 0.96659
584.4, 0.96961
584.6, 0.9716
584.8, 0.975
585.0, 0.97678
585.2, 0.97674
585.4, 0.97736
585.6, 0.97645
585.8, 0.97695
586.0, 0.97882
586.2, 0.97738
586.4, 0.97729
586.6, 0.97764
586.8, 0.97885
587.0, 0.97879
587.2, 0.97633
587.4, 0.97653
587.6, 0.97513
587.8, 0.97598
588.0, 0.97458
588.2, 0.97488
588.4, 0.97237
588.6, 0.97142
588.8, 0.97059
589.0, 0.96856
589.2, 0.96767
589.4, 0.96692
589.6, 0.96687
589.8, 0.96577
590.0, 0.96597
590.2, 0.966
590.4, 0.96535
590.6, 0.96576
590.8, 0.96463
591.0, 0.9621
591.2, 0.96094
591.4, 0.96029
591.6, 0.95895
591.8, 0.95649
592.0, 0.95738
592.2, 0.9584
592.4, 0.9581
592.6, 0.95803
592.8, 0.95898
593.0, 0.95948
593.2, 0.95988
593.4, 0.95952
593.6, 0.96019
593.8, 0.96173
594.0, 0.96141
594.2, 0.96031
594.4, 0.95849
594.6, 0.95959
594.8, 0.96075
595.0, 0.95963
595.2, 0.95895
595.4, 0.95975
595.6, 0.95943
595.8, 0.95947
596.0, 0.96005
596.2, 0.96211
596.4, 0.96092
596.6, 0.96031
596.8, 0.95976
597.0, 0.95974
597.2, 0.95896
597.4, 0.95831
597.6, 0.95931
597.8, 0.95871
598.0, 0.95692
598.2, 0.95623
598.4, 0.95445
598.6, 0.95472
598.8, 0.95692
599.0, 0.95534
599.2, 0.95614
599.4, 0.95551
599.6, 0.9553
599.8, 0.95434
600.0, 0.95417
600.2, 0.95192
600.4, 0.95245
600.6, 0.95467
600.8, 0.95342
601.0, 0.95332
601.2, 0.95466
601.4, 0.95449
601.6, 0.95391
601.8, 0.95416
602.0, 0.95548
602.2, 0.95784
602.4, 0.95959
602.6, 0.95883
602.8, 0.95813
603.0, 0.95983
603.2, 0.96005
603.4, 0.95825
603.6, 0.95907
603.8, 0.95932
604.0, 0.95997
604.2, 0.95905
604.4, 0.96033
604.6, 0.95931
604.8, 0.96117
605.0, 0.96406
605.2, 0.96497
605.4, 0.96636
605.6, 0.96468
605.8, 0.96577
606.0, 0.96622
606.2, 0.96668
606.4, 0.96816
606.6, 0.96794
606.8, 0.96705
607.0, 0.96749
607.2, 0.96776
607.4, 0.96759
607.6, 0.96977
607.8, 0.96934
608.0, 0.97041
608.2, 0.97287
608.4, 0.97156
608.6, 0.97111
608.8, 0.97198
609.0, 0.97358
609.2, 0.97492
609.4, 0.97218
609.6, 0.97311
609.8, 0.9738
610.0, 0.97306
610.2, 0.97384
610.4, 0.9748
610.6, 0.97485
610.8, 0.97453
611.0, 0.97526
611.2, 0.9753
611.4, 0.9744
611.6, 0.97468
611.8, 0.9746
612.0, 0.97453
612.2, 0.97525
612.4, 0.97386
612.6, 0.97361
612.8, 0.97261
613.0, 0.97326
613.2, 0.97465
613.4, 0.97596
613.6, 0.9764
613.8, 0.97446
614.0, 0.97611
614.2, 0.97555
614.4, 0.97426
614.6, 0.97411
614.8, 0.97216
615.0, 0.97108
615.2, 0.9707
615.4, 0.97119
615.6, 0.97122
615.8, 0.97087
616.0, 0.96966
616.2, 0.96934
616.4, 0.96956
616.6, 0.96767
616.8, 0.96626
617.0, 0.96594
617.2, 0.96516
617.4, 0.9656
617.6, 0.9669
617.8, 0.96899
618.0, 0.97129
618.2, 0.97099
618.4, 0.97088
618.6, 0.96988
618.8, 0.97026
619.0, 0.96922
619.2, 0.9724
619.4, 0.97364
619.6, 0.97327
619.8, 0.97231
620.0, 0.97263
620.2, 0.97178
620.4, 0.97154
620.6, 0.97363
620.8, 0.97355
621.0, 0.97329
621.2, 0.97437
621.4, 0.9738
621.6, 0.97458
621.8, 0.97447
622.0, 0.97234
622.2, 0.97162
622.4, 0.97317
622.6, 0.97283
622.8, 0.97142
623.0, 0.97114
623.2, 0.96984
623.4, 0.96948
623.6, 0.96895
623.8, 0.9684
624.0, 0.96963
624.2, 0.96739
624.4, 0.96816
624.6, 0.96891
624.8, 0.96949
625.0, 0.968
625.2, 0.96463
625.4, 0.96441
625.6, 0.96471
625.8, 0.96348
626.0, 0.96356
626.2, 0.96424
626.4, 0.96452
626.6, 0.96465
626.8, 0.96536
627.0, 0.96521
627.2, 0.96719
627.4, 0.96701
627.6, 0.96686
627.8, 0.96909
628.0, 0.96967
628.2, 0.97119
628.4, 0.97011
628.6, 0.97287
628.8, 0.97508
629.0, 0.97491
629.2, 0.9775
629.4, 0.97883
629.6, 0.98084
629.8, 0.98106
630.0, 0.98158
630.2, 0.98394
630.4, 0.98413
630.6, 0.9817
630.8, 0.98242
631.0, 0.98299
631.2, 0.98268
631.4, 0.98378
631.6, 0.98619
631.8, 0.98699
632.0, 0.98771
632.2, 0.98822
632.4, 0.98829
632.6, 0.98884
632.8, 0.98926
633.0, 0.98773
633.2, 0.98405
633.4, 0.98369
633.6, 0.98431
633.8, 0.98345
634.0, 0.98159
634.2, 0.98084
634.4, 0.97972
634.6, 0.98133
634.8, 0.98265
635.0, 0.97988
635.2, 0.97944
635.4, 0.97755
635.6, 0.977
635.8, 0.9783
636.0, 0.97706
636.2, 0.97701
636.4, 0.97384
636.6, 0.97367
636.8, 0.97255
637.0, 0.97192
637.2, 0.97004
637.4, 0.96974
637.6, 0.97009
637.8, 0.96977
638.0, 0.96982
638.2, 0.97071
638.4, 0.97223
638.6, 0.97326
638.8, 0.97263
639.0, 0.97245
639.2, 0.97324
639.4, 0.97532
639.6, 0.97488
639.8, 0.97641
640.0, 0.97899
640.2, 0.98077
640.4, 0.98075
640.6, 0.98144
640.8, 0.98173
641.0, 0.98322
641.2, 0.98286
641.4, 0.98221
641.6, 0.98414
641.8, 0.98488
642.0, 0.98685
642.2, 0.98647
642.4, 0.98548
642.6, 0.98558
642.8, 0.98515
643.0, 0.98739
643.2, 0.98808
643.4, 0.98972
643.6, 0.98822
643.8, 0.99038
644.0, 0.99156
644.2, 0.9902
644.4, 0.98874
644.6, 0.98747
644.8, 0.98652
645.0, 0.98509
645.2, 0.98325
645.4, 0.98313
645.6, 0.98252
645.8, 0.98432
646.0, 0.98149
646.2, 0.98181
646.4, 0.98208
646.6, 0.98022
646.8, 0.98003
647.0, 0.98001
647.2, 0.97722
647.4, 0.97568
647.6, 0.97411
647.8, 0.97482
648.0, 0.97382
648.2, 0.97462
648.4, 0.97469
648.6, 0.97456
648.8, 0.97615
649.0, 0.97488
649.2, 0.97473
649.4, 0.97423
649.6, 0.97445
649.8, 0.97576
650.0, 0.97737
650.2, 0.97617
650.4, 0.97641
650.6, 0.97495
650.8, 0.97899
651.0, 0.98037
651.2, 0.98117
651.4, 0.98004
651.6, 0.97837
651.8, 0.9794
652.0, 0.98334
652.2, 0.98447
652.4, 0.98502
652.6, 0.98587
652.8, 0.98676
653.0, 0.98757
653.2, 0.98961
653.4, 0.98902
653.6, 0.98827
653.8, 0.98838
654.0, 0.98848
654.2, 0.99033
654.4, 0.98919
654.6, 0.99017
654.8, 0.99057
655.0, 0.9914
655.2, 0.98982
655.4, 0.98754
655.6, 0.9879
655.8, 0.98826
656.0, 0.98899
656.2, 0.98797
656.4, 0.98743
656.6, 0.98491
656.8, 0.98365
657.0, 0.98295
657.2, 0.98472
657.4, 0.98267
657.6, 0.98133
657.8, 0.97955
658.0, 0.97938
658.2, 0.97846
658.4, 0.97679
658.6, 0.97579
658.8, 0.97402
659.0, 0.97261
659.2, 0.9704
659.4, 0.97117
659.6, 0.97058
659.8, 0.96878
660.0, 0.96779
660.2, 0.96696
660.4, 0.96586
660.6, 0.96532
660.8, 0.96464
661.0, 0.96377
661.2, 0.96187
661.4, 0.96161
661.6, 0.96304
661.8, 0.96174
662.0, 0.96025
662.2, 0.96098
662.4, 0.96158
662.6, 0.96022
662.8, 0.9602
663.0, 0.96197
663.2, 0.96243
663.4, 0.96281
663.6, 0.9654
663.8, 0.96595
664.0, 0.96561
664.2, 0.96728
664.4, 0.96732
664.6, 0.96831
664.8, 0.96821
665.0, 0.96713
665.2, 0.96915
665.4, 0.96992
665.6, 0.9694
665.8, 0.97151
666.0, 0.97007
666.2, 0.96814
666.4, 0.96569
666.6, 0.96539
666.8, 0.96779
667.0, 0.97067
667.2, 0.97183
667.4, 0.97229
667.6, 0.97321
667.8, 0.97119
668.0, 0.96826
668.2, 0.96863
668.4, 0.96883
668.6, 0.96952
668.8, 0.96938
669.0, 0.97125
669.2, 0.97131
669.4, 0.97094
669.6, 0.97001
669.8, 0.97027
670.0, 0.9705
670.2, 0.96988
670.4, 0.97084
670.6, 0.9704
670.8, 0.96779
671.0, 0.9675
671.2, 0.96838
671.4, 0.96706
671.6, 0.96646
671.8, 0.96699
672.0, 0.96566
672.2, 0.96693
672.4, 0.96697
672.6, 0.96661
672.8, 0.96713
673.0, 0.9661
673.2, 0.96538
673.4, 0.96679
673.6, 0.96792
673.8, 0.96775
674.0, 0.96813
674.2, 0.97062
674.4, 0.9718
674.6, 0.97014
674.8, 0.9714
675.0, 0.96958
675.2, 0.97028
675.4, 0.97167
675.6, 0.97206
675.8, 0.9712
676.0, 0.97219
676.2, 0.97332
676.4, 0.97466
676.6, 0.97627
676.8, 0.97579
677.0, 0.97658
677.2, 0.9774
677.4, 0.97898
677.6, 0.97873
677.8, 0.98086
678.0, 0.98214
678.2, 0.98321
678.4, 0.98412
678.6, 0.98426
678.8, 0.98643
679.0, 0.98783
679.2, 0.98808
679.4, 0.98838
679.6, 0.98826
679.8, 0.98884
680.0, 0.98722
680.2, 0.98782
680.4, 0.98916
680.6, 0.99146
680.8, 0.9892
681.0, 0.98943
681.2, 0.99051
681.4, 0.9907
681.6, 0.98994
681.8, 0.99063
682.0, 0.98837
682.2, 0.98902
682.4, 0.98744
682.6, 0.98724
682.8, 0.98558
683.0, 0.98652
683.2, 0.98739
683.4, 0.98675
683.6, 0.98546
683.8, 0.98525
684.0, 0.98626
684.2, 0.98544
684.4, 0.98422
684.6, 0.98467
684.8, 0.98358
685.0, 0.98212
685.2, 0.98095
685.4, 0.97958
685.6, 0.98037
685.8, 0.9783
686.0, 0.97817
686.2, 0.97772
686.4, 0.9784
686.6, 0.97963
686.8, 0.97657
687.0, 0.97743
687.2, 0.97781
687.4, 0.9782
687.6, 0.97694
687.8, 0.97701
688.0, 0.97691
688.2, 0.97627
688.4, 0.97653
688.6, 0.9765
688.8, 0.97618
689.0, 0.97504
689.2, 0.97531
689.4, 0.97516
689.6, 0.97747
689.8, 0.97922
690.0, 0.9788
690.2, 0.97868
690.4, 0.97785
690.6, 0.97731
690.8, 0.97556
691.0, 0.97405
691.2, 0.97431
691.4, 0.97478
691.6, 0.97589
691.8, 0.97567
692.0, 0.97645
692.2, 0.97785
692.4, 0.97907
692.6, 0.97869
692.8, 0.97741
693.0, 0.97773
693.2, 0.97894
693.4, 0.9804
693.6, 0.97968
693.8, 0.9782
694.0, 0.97793
694.2, 0.97918
694.4, 0.97822
694.6, 0.97762
694.8, 0.97784
695.0, 0.97931
695.2, 0.97882
695.4, 0.97931
695.6, 0.98061
695.8, 0.98008
696.0, 0.97941
696.2, 0.97781
696.4, 0.97824
696.6, 0.97876
696.8, 0.97879
697.0, 0.97848
697.2, 0.97714
697.4, 0.97611
697.6, 0.97589
697.8, 0.97805
698.0, 0.98019
698.2, 0.97927
698.4, 0.97689
698.6, 0.9758
698.8, 0.97585
699.0, 0.97596
699.2, 0.97632
699.4, 0.97717
699.6, 0.97671
699.8, 0.97645
700.0, 0.97627
700.2, 0.9772
700.4, 0.97662
700.6, 0.97563
700.8, 0.9769
701.0, 0.97676
701.2, 0.97573
701.4, 0.97657
701.6, 0.97681
701.8, 0.97783
702.0, 0.97766
702.2, 0.9769
702.4, 0.97732
702.6, 0.97812
702.8, 0.97895
703.0, 0.97926
703.2, 0.97625
703.4, 0.97649
703.6, 0.97748
703.8, 0.97842
704.0, 0.97857
704.2, 0.97969
704.4, 0.98011
704.6, 0.97978
704.8, 0.97845
705.0, 0.97672
705.2, 0.97659
705.4, 0.97572
705.6, 0.97594
705.8, 0.97574
706.0, 0.97534
706.2, 0.97554
706.4, 0.97682
706.6, 0.9756
706.8, 0.97502
707.0, 0.97369
707.2, 0.97467
707.4, 0.97542
707.6, 0.97411
707.8, 0.97422
708.0, 0.97462
708.2, 0.97449
708.4, 0.9743
708.6, 0.97497
708.8, 0.97371
709.0, 0.97257
709.2, 0.97264
709.4, 0.97147
709.6, 0.96939
709.8, 0.97082
710.0, 0.97179
710.2, 0.97127
710.4, 0.97049
710.6, 0.96801
710.8, 0.96689
711.0, 0.96578
711.2, 0.96851
711.4, 0.97053
711.6, 0.97185
711.8, 0.97265
712.0, 0.97185
712.2, 0.97241
712.4, 0.97194
712.6, 0.97366
712.8, 0.97416
713.0, 0.97333
713.2, 0.97402
713.4, 0.97276
713.6, 0.97402
713.8, 0.97519
714.0, 0.97478
714.2, 0.97556
714.4, 0.97643
714.6, 0.97582
714.8, 0.97396
715.0, 0.97626
715.2, 0.9769
715.4, 0.97643
715.6, 0.97642
715.8, 0.98004
716.0, 0.98085
716.2, 0.98073
716.4, 0.98143
716.6, 0.98317
716.8, 0.98252
717.0, 0.98191
717.2, 0.98112
717.4, 0.98235
717.6, 0.98294
717.8, 0.98237
718.0, 0.98305
718.2, 0.98207
718.4, 0.98225
718.6, 0.98261
718.8, 0.98292
719.0, 0.98469
719.2, 0.98502
719.4, 0.98762
719.6, 0.98853
719.8, 0.98924
720.0, 0.9857
720.2, 0.98465
720.4, 0.98663
720.6, 0.9868
720.8, 0.9864
721.0, 0.98624
721.2, 0.98484
721.4, 0.98256
721.6, 0.98172
721.8, 0.98097
722.0, 0.98242
722.2, 0.98193
722.4, 0.97952
722.6, 0.97918
722.8, 0.97828
723.0, 0.97707
723.2, 0.97683
723.4, 0.97664
723.6, 0.97617
723.8, 0.97639
724.0, 0.97598
724.2, 0.97494
724.4, 0.9746
724.6, 0.97417
724.8, 0.97348
725.0, 0.9721
725.2, 0.96913
725.4, 0.96845
725.6, 0.96851
725.8, 0.96719
726.0, 0.96575
726.2, 0.96602
726.4, 0.96567
726.6, 0.96504
726.8, 0.96709
727.0, 0.96708
727.2, 0.96679
727.4, 0.96574
727.6, 0.96432
727.8, 0.96399
728.0, 0.96521
728.2, 0.96524
728.4, 0.96814
728.6, 0.96814
728.8, 0.96822
729.0, 0.96974
729.2, 0.97026
729.4, 0.96964
729.6, 0.96976
729.8, 0.97112
730.0, 0.97342
730.2, 0.9736
730.4, 0.97262
730.6, 0.97339
730.8, 0.9716
731.0, 0.97254
731.2, 0.97455
731.4, 0.97552
731.6, 0.97701
731.8, 0.977
732.0, 0.97659
732.2, 0.97793
732.4, 0.97825
732.6, 0.9787
732.8, 0.97879
733.0, 0.97808
733.2, 0.9808
733.4, 0.98164
733.6, 0.98014
733.8, 0.98211
734.0, 0.97979
734.2, 0.97877
734.4, 0.98087
734.6, 0.98165
734.8, 0.98011
735.0, 0.97823
735.2, 0.97944
735.4, 0.98234
735.6, 0.98407
735.8, 0.98439
736.0, 0.98402
736.2, 0.98391
736.4, 0.98493
736.6, 0.98421
736.8, 0.98359
737.0, 0.98279
737.2, 0.98221
737.4, 0.98153
737.6, 0.98082
737.8, 0.98125
738.0, 0.98188
738.2, 0.98265
738.4, 0.98296
738.6, 0.98157
738.8, 0.98199
739.0, 0.9802
739.2, 0.97668
739.4, 0.97543
739.6, 0.97683
739.8, 0.97656
740.0, 0.97824
740.2, 0.97981
740.4, 0.98148
740.6, 0.982
740.8, 0.98151
741.0, 0.97979
741.2, 0.97825
741.4, 0.97563
741.6, 0.97576
741.8, 0.97611
742.0, 0.97735
742.2, 0.97594
742.4, 0.97461
742.6, 0.97567
742.8, 0.9783
743.0, 0.97696
743.2, 0.97688
743.4, 0.97733
743.6, 0.9769
743.8, 0.97587
744.0, 0.97722
744.2, 0.9755
744.4, 0.97441
744.6, 0.97671
744.8, 0.97684
745.0, 0.97527
745.2, 0.97681
745.4, 0.97666
745.6, 0.97777
745.8, 0.97845
746.0, 0.97964
746.2, 0.97905
746.4, 0.97906
746.6, 0.97886
746.8, 0.98037
747.0, 0.98232
747.2, 0.9844
747.4, 0.98271
747.6, 0.98317
747.8, 0.9837
748.0, 0.98431
748.2, 0.98302
748.4, 0.98353
748.6, 0.98415
748.8, 0.98476
749.0, 0.98672
749.2, 0.98938
749.4, 0.98923
749.6, 0.98971
749.8, 0.99053
750.0, 0.99164
750.2, 0.99163
750.4, 0.99041
750.6, 0.98953
750.8, 0.9903
751.0, 0.98925
751.2, 0.99037
751.4, 0.98925
751.6, 0.98783
751.8, 0.98881
752.0, 0.98732
752.2, 0.98475
752.4, 0.98453
752.6, 0.98441
752.8, 0.98347
753.0, 0.98378
753.2, 0.98326
753.4, 0.9826
753.6, 0.98
753.8, 0.98017
754.0, 0.98249
754.2, 0.98066
754.4, 0.97934
754.6, 0.98
754.8, 0.97952
755.0, 0.97945
755.2, 0.98094
755.4, 0.98059
755.6, 0.97866
755.8, 0.97857
756.0, 0.97919
756.2, 0.97784
756.4, 0.97668
756.6, 0.97545
756.8, 0.97423
757.0, 0.97355
757.2, 0.97211
757.4, 0.97168
757.6, 0.97236
757.8, 0.97383
758.0, 0.97256
758.2, 0.97159
758.4, 0.97127
758.6, 0.97041
758.8, 0.97026
759.0, 0.97014
759.2, 0.96792
759.4, 0.96685
759.6, 0.96524
759.8, 0.9666
760.0, 0.96697
760.2, 0.96791
760.4, 0.97114
760.6, 0.97021
760.8, 0.96701
761.0, 0.96726
761.2, 0.96876
761.4, 0.97004
761.6, 0.97254
761.8, 0.97133
762.0, 0.96987
762.2, 0.9707
762.4, 0.9735
762.6, 0.97153
762.8, 0.9711
763.0, 0.97006
763.2, 0.97267
763.4, 0.97252
763.6, 0.97413
763.8, 0.97597
764.0, 0.97974
764.2, 0.98215
764.4, 0.98294
764.6, 0.98136
764.8, 0.98195
765.0, 0.98275
765.2, 0.98148
765.4, 0.98312
765.6, 0.98306
765.8, 0.9839
766.0, 0.9845
766.2, 0.98578
766.4, 0.98529
766.6, 0.98443
766.8, 0.98409
767.0, 0.98435
767.2, 0.98347
767.4, 0.98334
767.6, 0.98443
767.8, 0.98609
768.0, 0.98793
768.2, 0.98743
768.4, 0.9891
768.6, 0.99041
768.8, 0.98962
769.0, 0.99033
769.2, 0.98994
769.4, 0.98975
769.6, 0.98867
769.8, 0.98762
770.0, 0.98785
770.2, 0.98816
770.4, 0.9883
770.6, 0.98777
770.8, 0.98871
771.0, 0.98978
771.2, 0.99069
771.4, 0.98952
771.6, 0.98825
771.8, 0.98598
772.0, 0.98459
772.2, 0.98277
772.4, 0.98242
772.6, 0.98249
772.8, 0.98037
773.0, 0.97951
773.2, 0.98012
773.4, 0.97949
773.6, 0.97841
773.8, 0.97843
774.0, 0.97741
774.2, 0.97794
774.4, 0.97869
774.6, 0.9758
774.8, 0.97417
775.0, 0.97564
775.2, 0.97498
775.4, 0.97469
775.6, 0.9749
775.8, 0.97518
776.0, 0.97548
776.2, 0.97626
776.4, 0.97514
776.6, 0.97465
776.8, 0.97198
777.0, 0.97025
777.2, 0.96803
777.4, 0.97144
777.6, 0.97246
777.8, 0.9712
778.0, 0.97171
778.2, 0.97365
778.4, 0.97114
778.6, 0.96858
778.8, 0.97085
779.0, 0.97094
779.2, 0.96918
779.4, 0.96955
779.6, 0.97045
779.8, 0.96933
780.0, 0.96856
780.2, 0.96891
780.4, 0.9703
780.6, 0.97231
780.8, 0.97403
781.0, 0.97549
781.2, 0.9743
781.4, 0.97437
781.6, 0.97442
781.8, 0.97389
782.0, 0.97417
782.2, 0.97718
782.4, 0.9775
782.6, 0.97887
782.8, 0.97791
783.0, 0.98049
783.2, 0.98173
783.4, 0.98185
783.6, 0.97997
783.8, 0.97885
784.0, 0.97793
784.2, 0.97872
784.4, 0.97876
784.6, 0.97709
784.8, 0.97602
785.0, 0.97749
785.2, 0.97973
785.4, 0.98072
785.6, 0.97905
785.8, 0.97862
786.0, 0.97867
786.2, 0.98036
786.4, 0.97968
786.6, 0.98083
786.8, 0.98028
787.0, 0.97952
787.2, 0.97644
787.4, 0.97606
787.6, 0.97599
787.8, 0.97672
788.0, 0.97461
788.2, 0.97457
788.4, 0.97654
788.6, 0.97692
788.8, 0.979
789.0, 0.97807
789.2, 0.9765
789.4, 0.97312
789.6, 0.97394
789.8, 0.97433
790.0, 0.97634
790.2, 0.97468
790.4, 0.97396
790.6, 0.97341
790.8, 0.97373
791.0, 0.97127
791.2, 0.96951
791.4, 0.96587
791.6, 0.96562
791.8, 0.96621
792.0, 0.96762
792.2, 0.96628
792.4, 0.96614
792.6, 0.96744
792.8, 0.96833
793.0, 0.96808
793.2, 0.96805
793.4, 0.96991
793.6, 0.96812
793.8, 0.96613
794.0, 0.96416
794.2, 0.96283
794.4, 0.96392
794.6, 0.965
794.8, 0.96619
795.0, 0.96678
795.2, 0.96836
795.4, 0.96604
795.6, 0.9663
795.8, 0.96846
796.0, 0.97099
796.2, 0.96999
796.4, 0.96981
796.6, 0.97116
796.8, 0.96895
797.0, 0.96773
797.2, 0.96943
797.4, 0.97249
797.6, 0.9742
797.8, 0.97416
798.0, 0.97439
798.2, 0.97433
798.4, 0.97502
798.6, 0.97583
798.8, 0.97671
799.0, 0.97489
799.2, 0.97598
799.4, 0.9771
799.6, 0.97793
799.8, 0.9768
800.0, 0.97763
800.2, 0.97866
800.4, 0.97805
800.6, 0.9784
800.8, 0.97901
801.0, 0.98187
801.2, 0.98164
801.4, 0.98057
801.6, 0.98097
801.8, 0.98164
802.0, 0.98177
802.2, 0.98491
802.4, 0.98634
802.6, 0.98624
802.8, 0.98749
803.0, 0.98702
803.2, 0.98658
803.4, 0.98552
803.6, 0.98672
803.8, 0.98608
804.0, 0.98453
804.2, 0.98356
804.4, 0.98419
804.6, 0.98506
804.8, 0.98619
805.0, 0.98744
805.2, 0.98717
805.4, 0.98677
805.6, 0.98688
805.8, 0.98529
806.0, 0.98531
806.2, 0.98546
806.4, 0.9846
806.6, 0.98227
806.8, 0.98137
807.0, 0.98126
807.2, 0.98057
807.4, 0.97957
807.6, 0.97723
807.8, 0.97645
808.0, 0.97677
808.2, 0.97863
808.4, 0.97875
808.6, 0.97862
808.8, 0.97731
809.0, 0.97732
809.2, 0.97781
809.4, 0.97702
809.6, 0.97674
809.8, 0.97727
810.0, 0.97539
810.2, 0.97449
810.4, 0.97519
810.6, 0.97422
810.8, 0.97086
811.0, 0.97055
811.2, 0.97137
811.4, 0.97211
811.6, 0.97177
811.8, 0.971
812.0, 0.97098
812.2, 0.96994
812.4, 0.96857
812.6, 0.96585
812.8, 0.96643
813.0, 0.96632
813.2, 0.9667
813.4, 0.96684
813.6, 0.96631
813.8, 0.9677
814.0, 0.9688
814.2, 0.96979
814.4, 0.96716
814.6, 0.96649
814.8, 0.96683
815.0, 0.96714
815.2, 0.96739
815.4, 0.96765
815.6, 0.96876
815.8, 0.9699
816.0, 0.97008
816.2, 0.97036
816.4, 0.97095
816.6, 0.97114
816.8, 0.97018
817.0, 0.9677
817.2, 0.96566
817.4, 0.96544
817.6, 0.9674
817.8, 0.96974
818.0, 0.97287
818.2, 0.97333
818.4, 0.97448
818.6, 0.97402
818.8, 0.9735
819.0, 0.97424
819.2, 0.97484
819.4, 0.97481
819.6, 0.97697
819.8, 0.97815
820.0, 0.97987
820.2, 0.98155
820.4, 0.9833
820.6, 0.98609
820.8, 0.98346
821.0, 0.97936
821.2, 0.98011
821.4, 0.9804
821.6, 0.98083
821.8, 0.98307
822.0, 0.98294
822.2, 0.98136
822.4, 0.98194
822.6, 0.98207
822.8, 0.98299
823.0, 0.98331
823.2, 0.98407
823.4, 0.98385
823.6, 0.98573
823.8, 0.9863
824.0, 0.98634
824.2, 0.98596
824.4, 0.98701
824.6, 0.98724
824.8, 0.98791
825.0, 0.98754
825.2, 0.98624
825.4, 0.98636
825.6, 0.98575
825.8, 0.98644
826.0, 0.98623
826.2, 0.98437
826.4, 0.98353
826.6, 0.98586
826.8, 0.98539
827.0, 0.98334
827.2, 0.98394
827.4, 0.98526
827.6, 0.98292
827.8, 0.98011
828.0, 0.98011
828.2, 0.97874
828.4, 0.97829
828.6, 0.97847
828.8, 0.97656
829.0, 0.97557
829.2, 0.97485
829.4, 0.97506
829.6, 0.97487
829.8, 0.97486
830.0, 0.97416
830.2, 0.97245
830.4, 0.97316
830.6, 0.97286
830.8, 0.97438
831.0, 0.97443
831.2, 0.97401
831.4, 0.97139
831.6, 0.96993
831.8, 0.97056
832.0, 0.97196
832.2, 0.9723
832.4, 0.97275
832.6, 0.97128
832.8, 0.97128
833.0, 0.9699
833.2, 0.96816
833.4, 0.96668
833.6, 0.96687
833.8, 0.9675
834.0, 0.96748
834.2, 0.96829
834.4, 0.96902
834.6, 0.96703
834.8, 0.96642
835.0, 0.96575
835.2, 0.96479
835.4, 0.96481
835.6, 0.96583
835.8, 0.96743
836.0, 0.96809
836.2, 0.97113
836.4, 0.97104
836.6, 0.97081
836.8, 0.97279
837.0, 0.97139
837.2, 0.97163
837.4, 0.97424
837.6, 0.97542
837.8, 0.97696
838.0, 0.97676
838.2, 0.97579
838.4, 0.97349
838.6, 0.9731
838.8, 0.97346
839.0, 0.97497
839.2, 0.97338
839.4, 0.97413
839.6, 0.97349
839.8, 0.97396
840.0, 0.9761
840.2, 0.97557
840.4, 0.97771
840.6, 0.9788
840.8, 0.97764
841.0, 0.97786
841.2, 0.97893
841.4, 0.97941
841.6, 0.98099
841.8, 0.98167
842.0, 0.98273
842.2, 0.98381
842.4, 0.9841
842.6, 0.98164
842.8, 0.9811
843.0, 0.98268
843.2, 0.98326
843.4, 0.98451
843.6, 0.98543
843.8, 0.98408
844.0, 0.9847
844.2, 0.98418
844.4, 0.98299
844.6, 0.98449
844.8, 0.98583
845.0, 0.98593
845.2, 0.98616
845.4, 0.9853
845.6, 0.98438
845.8, 0.98497
846.0, 0.98309
846.2, 0.98233
846.4, 0.98273
846.6, 0.98225
846.8, 0.98052
847.0, 0.98071
847.2, 0.98278
847.4, 0.98458
847.6, 0.98533
847.8, 0.98636
848.0, 0.98356
848.2, 0.98058
848.4, 0.97944
848.6, 0.97861
848.8, 0.9798
849.0, 0.9784
849.2, 0.97742
849.4, 0.97664
849.6, 0.97617
849.8, 0.97653
850.0, 0.97547
850.2, 0.9749
850.4, 0.97431
850.6, 0.97351
850.8, 0.9745
851.0, 0.97476
851.2, 0.97176
851.4, 0.97065
851.6, 0.97128
851.8, 0.96977
852.0, 0.97013
852.2, 0.96961
852.4, 0.96794
852.6, 0.9683
852.8, 0.9693
853.0, 0.96942
853.2, 0.96871
853.4, 0.96761
853.6, 0.96654
853.8, 0.96678
854.0, 0.96885
854.2, 0.97115
854.4, 0.97121
854.6, 0.97188
854.8, 0.97244
855.0, 0.97134
855.2, 0.97156
855.4, 0.97062
855.6, 0.96923
855.8, 0.96795
856.0, 0.96865
856.2, 0.96927
856.4, 0.96986
856.6, 0.97072
856.8, 0.96743
857.0, 0.96452
857.2, 0.96341
857.4, 0.96389
857.6, 0.96385
857.8, 0.96684
858.0, 0.97076
858.2, 0.97082
858.4, 0.97068
858.6, 0.97109
858.8, 0.97395
859.0, 0.97697
859.2, 0.97627
859.4, 0.97414
859.6, 0.97515
859.8, 0.97513
860.0, 0.97372
860.2, 0.9743
860.4, 0.97543
860.6, 0.97529
860.8, 0.97709
861.0, 0.97697
861.2, 0.9772
861.4, 0.9763
861.6, 0.97638
861.8, 0.97607
862.0, 0.97653
862.2, 0.97709
862.4, 0.97941
862.6, 0.98069
862.8, 0.98175
863.0, 0.98291
863.2, 0.98285
863.4, 0.98285
863.6, 0.98363
863.8, 0.98267
864.0, 0.98259
864.2, 0.98359
864.4, 0.9846
864.6, 0.98561
864.8, 0.98618
865.0, 0.98658
865.2, 0.98453
865.4, 0.98128
865.6, 0.98138
865.8, 0.98076
866.0, 0.98251
866.2, 0.9848
866.4, 0.98337
866.6, 0.9825
866.8, 0.9807
867.0, 0.9816
867.2, 0.98299
867.4, 0.98396
867.6, 0.98386
867.8, 0.98613
868.0, 0.98948
868.2, 0.99365
868.4, 0.9922
868.6, 0.99053
868.8, 0.99001
869.0, 0.98767
869.2, 0.988
869.4, 0.98962
869.6, 0.98888
869.8, 0.98918
870.0, 0.98889
870.2, 0.98739
870.4, 0.98655
870.6, 0.98654
870.8, 0.98486
871.0, 0.98705
871.2, 0.98568
871.4, 0.98617
871.6, 0.98686
871.8, 0.98877
872.0, 0.98935
872.2, 0.98704
872.4, 0.98506
872.6, 0.98456
872.8, 0.98441
873.0, 0.98524
873.2, 0.98468
873.4, 0.9831
873.6, 0.98333
873.8, 0.98169
874.0, 0.98024
874.2, 0.97971
874.4, 0.98073
874.6, 0.98033
874.8, 0.98093
875.0, 0.9805
875.2, 0.97898
875.4, 0.98
875.6, 0.98066
875.8, 0.981
876.0, 0.97988
876.2, 0.97726
876.4, 0.97708
876.6, 0.97824
876.8, 0.97871
877.0, 0.97794
877.2, 0.97716
877.4, 0.97702
877.6, 0.97592
877.8, 0.97654
878.0, 0.97512
878.2, 0.97552
878.4, 0.97542
878.6, 0.9735
878.8, 0.97401
879.0, 0.97239
879.2, 0.97114
879.4, 0.97259
879.6, 0.97244
879.8, 0.97267
880.0, 0.97325
880.2, 0.97334
880.4, 0.97348
880.6, 0.97371
880.8, 0.97319
881.0, 0.97371
881.2, 0.97446
881.4, 0.97636
881.6, 0.976
881.8, 0.97466
882.0, 0.97615
882.2, 0.97534
882.4, 0.97548
882.6, 0.97427
882.8, 0.9751
883.0, 0.9752
883.2, 0.97513
883.4, 0.97398
883.6, 0.97516
883.8, 0.9742
884.0, 0.9736
884.2, 0.97405
884.4, 0.97699
884.6, 0.97856
884.8, 0.97787
885.0, 0.97953
885.2, 0.97672
885.4, 0.97478
885.6, 0.97674
885.8, 0.97774
886.0, 0.97798
886.2, 0.97568
886.4, 0.97577
886.6, 0.97759
886.8, 0.97879
887.0, 0.97809
887.2, 0.97881
887.4, 0.97972
887.6, 0.97934
887.8, 0.9791
888.0, 0.9778
888.2, 0.97692
888.4, 0.97875
888.6, 0.98089
888.8, 0.97822
889.0, 0.97696
889.2, 0.97679
889.4, 0.97779
889.6, 0.98072
889.8, 0.98317
890.0, 0.98319
890.2, 0.98334
890.4, 0.98323
890.6, 0.98542
890.8, 0.98637
891.0, 0.98532
891.2, 0.98404
891.4, 0.98435
891.6, 0.98475
891.8, 0.98415
892.0, 0.98456
892.2, 0.98432
892.4, 0.98386
892.6, 0.98627
892.8, 0.987
893.0, 0.98852
893.2, 0.98847
893.4, 0.98813
893.6, 0.9869
893.8, 0.98565
894.0, 0.98633
894.2, 0.98654
894.4, 0.98685
894.6, 0.98871
894.8, 0.98952
895.0, 0.98904
895.2, 0.98677
895.4, 0.98614
895.6, 0.98819
895.8, 0.98719
896.0, 0.98579
896.2, 0.98568
896.4, 0.98696
896.6, 0.98558
896.8, 0.98268
897.0, 0.98179
897.2, 0.98244
897.4, 0.98377
897.6, 0.98312
897.8, 0.98097
898.0, 0.98197
898.2, 0.9812
898.4, 0.98065
898.6, 0.98086
898.8, 0.98082
899.0, 0.97952
899.2, 0.98072
899.4, 0.98103
899.6, 0.98003
899.8, 0.98121
900.0, 0.98078
900.2, 0.98032
900.4, 0.97969
900.6, 0.97997
900.8, 0.97792
901.0, 0.97621
901.2, 0.97519
901.4, 0.97444
901.6, 0.97603
901.8, 0.97716
902.0, 0.97464
902.2, 0.97453
902.4, 0.97631
902.6, 0.97643
902.8, 0.9765
903.0, 0.97628
903.2, 0.97666
903.4, 0.978
903.6, 0.97906
903.8, 0.97767
904.0, 0.97674
904.2, 0.9761
904.4, 0.97643
904.6, 0.97571
904.8, 0.97292
905.0, 0.97104
905.2, 0.97161
905.4, 0.97213
905.6, 0.97304
905.8, 0.9729
906.0, 0.97245
906.2, 0.97251
906.4, 0.97198
906.6, 0.97027
906.8, 0.97088
907.0, 0.9709
907.2, 0.96976
907.4, 0.97005
907.6, 0.96964
907.8, 0.96939
908.0, 0.97069
908.2, 0.97163
908.4, 0.97221
908.6, 0.97327
908.8, 0.9737
909.0, 0.9739
909.2, 0.97361
909.4, 0.97274
909.6, 0.97316
909.8, 0.97171
910.0, 0.96956
910.2, 0.96701
910.4, 0.96655
910.6, 0.96778
910.8, 0.96637
911.0, 0.96765
911.2, 0.96877
911.4, 0.97034
911.6, 0.97058
911.8, 0.97031
912.0, 0.97061
912.2, 0.96713
912.4, 0.96501
912.6, 0.96654
912.8, 0.9688
913.0, 0.96872
913.2, 0.96784
913.4, 0.96717
913.6, 0.96872
913.8, 0.96989
914.0, 0.96821
914.2, 0.9672
914.4, 0.96876
914.6, 0.96923
914.8, 0.96984
915.0, 0.9699
915.2, 0.96858
915.4, 0.96782
915.6, 0.96686
915.8, 0.96586
916.0, 0.96555
916.2, 0.96572
916.4, 0.96466
916.6, 0.96247
916.8, 0.96183
917.0, 0.96464
917.2, 0.96454
917.4, 0.96565
917.6, 0.96608
917.8, 0.96763
918.0, 0.96788
918.2, 0.96705
918.4, 0.96529
918.6, 0.96655
918.8, 0.96616
919.0, 0.96464
919.2, 0.96399
919.4, 0.96319
919.6, 0.9632
919.8, 0.96505
920.0, 0.96486
920.2, 0.96268
920.4, 0.96186
920.6, 0.9645
920.8, 0.96478
921.0, 0.96516
921.2, 0.96556
921.4, 0.9642
921.6, 0.96529
921.8, 0.96968
922.0, 0.97189
922.2, 0.97161
922.4, 0.97081
922.6, 0.97091
922.8, 0.96766
923.0, 0.96644
923.2, 0.96578
923.4, 0.9673
923.6, 0.96871
923.8, 0.97046
924.0, 0.96916
924.2, 0.96822
924.4, 0.96748
924.6, 0.96614
924.8, 0.96546
925.0, 0.96708
925.2, 0.9685
925.4, 0.96782
925.6, 0.96589
925.8, 0.96321
926.0, 0.96138
926.2, 0.96145
926.4, 0.96153
926.6, 0.96088
926.8, 0.95859
927.0, 0.95697
927.2, 0.95457
927.4, 0.95441
927.6, 0.95533
927.8, 0.95721
928.0, 0.95834
928.2, 0.95749
928.4, 0.95782
928.6, 0.95828
928.8, 0.957
929.0, 0.95675
929.2, 0.95695
929.4, 0.95742
929.6, 0.9577
929.8, 0.95633
930.0, 0.95598
930.2, 0.95684
930.4, 0.95697
930.6, 0.95808
930.8, 0.95803
931.0, 0.95623
931.2, 0.95401
931.4, 0.95587
931.6, 0.95824
931.8, 0.95872
932.0, 0.95622
932.2, 0.95371
932.4, 0.95392
932.6, 0.95734
932.8, 0.95922
933.0, 0.95994
933.2, 0.95878
933.4, 0.95545
933.6, 0.95467
933.8, 0.95399
934.0, 0.95505
934.2, 0.95303
934.4, 0.95285
934.6, 0.95459
934.8, 0.95513
935.0, 0.95574
935.2, 0.95785
935.4, 0.95853
935.6, 0.95787
935.8, 0.95722
936.0, 0.95866
936.2, 0.95815
936.4, 0.95761
936.6, 0.95902
936.8, 0.96023
937.0, 0.9595
937.2, 0.95971
937.4, 0.96024
937.6, 0.96213
937.8, 0.96126
938.0, 0.96143
938.2, 0.96234
938.4, 0.96109
938.6, 0.95989
938.8, 0.95993
939.0, 0.9608
939.2, 0.95936
939.4, 0.9585
939.6, 0.95943
939.8, 0.96002
940.0, 0.959
940.2, 0.95917
940.4, 0.96044
940.6, 0.9618
940.8, 0.96306
941.0, 0.96207
941.2, 0.9623
941.4, 0.96266
941.6, 0.96243
941.8, 0.96306
942.0, 0.96453
942.2, 0.96614
942.4, 0.9664
942.6, 0.96588
942.8, 0.96723
943.0, 0.96489
943.2, 0.96336
943.4, 0.96324
943.6, 0.9651
943.8, 0.96643
944.0, 0.96676
944.2, 0.96679
944.4, 0.96589
944.6, 0.9665
944.8, 0.96721
945.0, 0.96706
945.2, 0.96604
945.4, 0.96324
945.6, 0.96196
945.8, 0.96268
946.0, 0.96323
946.2, 0.96551
946.4, 0.96766
946.6, 0.96822
946.8, 0.96773
947.0, 0.96654
947.2, 0.96565
947.4, 0.96362
947.6, 0.96505
947.8, 0.96768
948.0, 0.96577
948.2, 0.96489
948.4, 0.96521
948.6, 0.96661
948.8, 0.96749
949.0, 0.96655
949.2, 0.96512
949.4, 0.96292
949.6, 0.96172
949.8, 0.96244
950.0, 0.96229
950.2, 0.96339
950.4, 0.96191
950.6, 0.95946
950.8, 0.95885
951.0, 0.95875
951.2, 0.95868
951.4, 0.95778
951.6, 0.95699
951.8, 0.95733
952.0, 0.95617
952.2, 0.95514
952.4, 0.95339
952.6, 0.95187
952.8, 0.95255
953.0, 0.95435
953.2, 0.95468
953.4, 0.95511
953.6, 0.95402
953.8, 0.95258
954.0, 0.94922
954.2, 0.94876
954.4, 0.94694
954.6, 0.94609
954.8, 0.94546
955.0, 0.94616
955.2, 0.94688
955.4, 0.94748
955.6, 0.94709
955.8, 0.94558
956.0, 0.94342
956.2, 0.94102
956.4, 0.94042
956.6, 0.94037
956.8, 0.93897
957.0, 0.93798
957.2, 0.93818
957.4, 0.93911
957.6, 0.93877
957.8, 0.93866
958.0, 0.93853
958.2, 0.93704
958.4, 0.93511
958.6, 0.93512
958.8, 0.93658
959.0, 0.9362
959.2, 0.93495
959.4, 0.93349
959.6, 0.93369
959.8, 0.93349
960.0, 0.93372