#Typical Measured Spectrum of Semrock FF652-Di01 Optical Filter	
#For wavelengths between 320 and 1120 nm, values near or below 3e-7 (Optical Density 6.5) are measurement noise limited.
#For wavelengths < 320 nm and > 1120 nm, values near or below 3e-6 (Optical Density 5.5) are measurement noise limited. 
#Data format:  Wavelength (nm) <tab> Transmission (0 to 1)
#Type: dichroic,
#Name: Semrock FF652-Di01
wavelength,transmission
340.0, 0.01927
340.2, 0.03089
340.4, 0.03997
340.6, 0.04358
340.8, 0.04247
341.0, 0.03561
341.2, 0.02522
341.4, 0.01669
341.6, 0.01529
341.8, 0.01961
342.0, 0.02498
342.2, 0.02794
342.4, 0.02856
342.6, 0.02532
342.8, 0.01971
343.0, 0.01281
343.2, 0.00711
343.4, 0.00396
343.6, 0.00296
343.8, 0.00282
344.0, 0.00307
344.2, 0.00411
344.4, 0.00631
344.6, 0.0093
344.8, 0.01185
345.0, 0.01324
345.2, 0.01309
345.4, 0.01186
345.6, 0.00954
345.8, 0.00672
346.0, 0.00436
346.2, 0.0031
346.4, 0.00277
346.6, 0.00302
346.8, 0.00383
347.0, 0.00533
347.2, 0.00698
347.4, 0.00821
347.6, 0.00898
347.8, 0.00906
348.0, 0.00809
348.2, 0.00663
348.4, 0.0052
348.6, 0.00382
348.8, 0.00309
349.0, 0.003
349.2, 0.0035
349.4, 0.00454
349.6, 0.00561
349.8, 0.0066
350.0, 0.00703
350.2, 0.00698
350.4, 0.0062
350.6, 0.0051
350.8, 0.00375
351.0, 0.00262
351.2, 0.00178
351.4, 0.00147
351.6, 0.00148
351.8, 0.00143
352.0, 0.00188
352.2, 0.00277
352.4, 0.00415
352.6, 0.00561
352.8, 0.00655
353.0, 0.00691
353.2, 0.00686
353.4, 0.0062
353.6, 0.00479
353.8, 0.00369
354.0, 0.00266
354.2, 0.00224
354.4, 0.00239
354.6, 0.00322
354.8, 0.00427
355.0, 0.00497
355.2, 0.00525
355.4, 0.00532
355.6, 0.00485
355.8, 0.004
356.0, 0.00285
356.2, 0.00185
356.4, 0.00102
356.6, 6.7311e-04
356.8, 4.9408e-04
357.0, 4.2606e-04
357.2, 4.3448e-04
357.4, 5.556e-04
357.6, 8.2039e-04
357.8, 0.00109
358.0, 0.00137
358.2, 0.00151
358.4, 0.00155
358.6, 0.00139
358.8, 0.00135
359.0, 0.00102
359.2, 7.3206e-04
359.4, 4.9043e-04
359.6, 2.5415e-04
359.8, 1.56e-04
360.0, 2.0414e-04
360.2, 1.5612e-04
360.4, 1.9543e-04
360.6, 2.6515e-04
360.8, 3.1145e-04
361.0, 5.6725e-04
361.2, 7.8284e-04
361.4, 0.00109
361.6, 0.0012
361.8, 0.00144
362.0, 0.00142
362.2, 0.00137
362.4, 0.00116
362.6, 9.0013e-04
362.8, 6.5506e-04
363.0, 4.7249e-04
363.2, 3.7994e-04
363.4, 2.7702e-04
363.6, 3.0924e-04
363.8, 5.0624e-04
364.0, 7.4793e-04
364.2, 8.2525e-04
364.4, 0.0012
364.6, 0.00123
364.8, 0.00139
365.0, 0.00121
365.2, 9.5375e-04
365.4, 7.6541e-04
365.6, 6.0831e-04
365.8, 5.0873e-04
366.0, 3.2757e-04
366.2, 3.2634e-04
366.4, 2.0636e-04
366.6, 3.9387e-04
366.8, 3.0886e-04
367.0, 4.1284e-04
367.2, 4.9101e-04
367.4, 5.1389e-04
367.6, 5.4203e-04
367.8, 4.8499e-04
368.0, 5.7055e-04
368.2, 5.3494e-04
368.4, 3.8537e-04
368.6, 2.6644e-04
368.8, 3.3614e-04
369.0, 2.9822e-04
369.2, 1.1963e-04
369.4, 1.6019e-04
369.6, 1.4575e-04
369.8, 1.2519e-04
370.0, 2.9055e-04
370.2, 1.1222e-04
370.4, 1.5596e-04
370.6, 3.094e-04
370.8, 2.6316e-04
371.0, 3.2799e-04
371.2, 4.5011e-04
371.4, 3.3883e-04
371.6, 5.1507e-04
371.8, 4.1313e-04
372.0, 4.8628e-04
372.2, 4.0144e-04
372.4, 4.2237e-04
372.6, 3.8303e-04
372.8, 6.0092e-04
373.0, 5.9423e-04
373.2, 6.1697e-04
373.4, 5.7946e-04
373.6, 7.3129e-04
373.8, 8.2653e-04
374.0, 8.4969e-04
374.2, 9.1511e-04
374.4, 9.1906e-04
374.6, 8.6329e-04
374.8, 8.8551e-04
375.0, 8.7999e-04
375.2, 7.5703e-04
375.4, 9.2577e-04
375.6, 9.8251e-04
375.8, 0.00112
376.0, 0.00119
376.2, 0.00149
376.4, 0.00158
376.6, 0.00161
376.8, 0.00149
377.0, 0.00144
377.2, 0.00147
377.4, 0.00102
377.6, 8.8615e-04
377.8, 7.2586e-04
378.0, 5.5657e-04
378.2, 4.7426e-04
378.4, 4.3143e-04
378.6, 4.114e-04
378.8, 5.7451e-04
379.0, 7.1637e-04
379.2, 8.7697e-04
379.4, 0.00116
379.6, 0.00141
379.8, 0.00157
380.0, 0.00169
380.2, 0.00166
380.4, 0.00154
380.6, 0.00128
380.8, 0.00108
381.0, 9.2868e-04
381.2, 6.7685e-04
381.4, 5.8879e-04
381.6, 5.4726e-04
381.8, 6.9067e-04
382.0, 0.00113
382.2, 0.00217
382.4, 0.00361
382.6, 0.00502
382.8, 0.00613
383.0, 0.00658
383.2, 0.00662
383.4, 0.00631
383.6, 0.00553
383.8, 0.00432
384.0, 0.00298
384.2, 0.00232
384.4, 0.00225
384.6, 0.00249
384.8, 0.00277
385.0, 0.00263
385.2, 0.00251
385.4, 0.00236
385.6, 0.00188
385.8, 0.00123
386.0, 7.4211e-04
386.2, 2.6704e-04
386.4, 5.3841e-05
386.6, 5.1235e-05
386.8, 5.0922e-05
387.0, 5.0835e-05
387.2, 5.1098e-05
387.4, 5.1295e-05
387.6, 5.1108e-05
387.8, 5.0569e-05
388.0, 5.0083e-05
388.2, 4.9408e-05
388.4, 4.8894e-05
388.6, 4.8577e-05
388.8, 4.8367e-05
389.0, 4.8088e-05
389.2, 4.7866e-05
389.4, 4.7497e-05
389.6, 4.694e-05
389.8, 4.6145e-05
390.0, 4.6113e-05
390.2, 4.6132e-05
390.4, 4.63e-05
390.6, 1.7475e-04
390.8, 7.6418e-04
391.0, 0.00102
391.2, 0.00132
391.4, 0.00144
391.6, 0.00155
391.8, 0.00146
392.0, 0.00162
392.2, 0.00137
392.4, 0.00101
392.6, 6.8497e-04
392.8, 3.3039e-04
393.0, 5.6778e-04
393.2, 4.2595e-04
393.4, 4.6006e-04
393.6, 5.0782e-04
393.8, 2.665e-04
394.0, 2.3995e-04
394.2, 3.6481e-04
394.4, 2.3814e-04
394.6, 2.9334e-04
394.8, 2.5974e-04
395.0, 1.6476e-04
395.2, 3.2379e-04
395.4, 3.2215e-04
395.6, 3.1096e-04
395.8, 3.8106e-04
396.0, 3.4547e-04
396.2, 1.7343e-04
396.4, 2.9968e-04
396.6, 1.5988e-04
396.8, 1.8592e-04
397.0, 3.4275e-04
397.2, 3.3721e-04
397.4, 2.2305e-04
397.6, 2.9403e-04
397.8, 3.2134e-04
398.0, 3.9252e-04
398.2, 2.4219e-04
398.4, 3.4157e-04
398.6, 2.3892e-04
398.8, 2.8539e-04
399.0, 2.1548e-04
399.2, 3.1793e-04
399.4, 3.4333e-04
399.6, 3.1279e-04
399.8, 2.6237e-04
400.0, 4.3319e-04
400.2, 4.2169e-04
400.4, 2.9433e-04
400.6, 5.189e-04
400.8, 3.7456e-04
401.0, 7.9679e-04
401.2, 0.00176
401.4, 0.00296
401.6, 0.00394
401.8, 0.00474
402.0, 0.00508
402.2, 0.00512
402.4, 0.00515
402.6, 0.00485
402.8, 0.00422
403.0, 0.00318
403.2, 0.0024
403.4, 0.00154
403.6, 0.00121
403.8, 0.00114
404.0, 0.0014
404.2, 0.00162
404.4, 0.00189
404.6, 0.00222
404.8, 0.00243
405.0, 0.00275
405.2, 0.0027
405.4, 0.00268
405.6, 0.00254
405.8, 0.00232
406.0, 0.002
406.2, 0.00175
406.4, 0.00149
406.6, 0.00116
406.8, 0.00102
407.0, 8.8126e-04
407.2, 0.00103
407.4, 0.00102
407.6, 0.00115
407.8, 0.00122
408.0, 0.00154
408.2, 0.00176
408.4, 0.00221
408.6, 0.00273
408.8, 0.00338
409.0, 0.00401
409.2, 0.00441
409.4, 0.00469
409.6, 0.00496
409.8, 0.00506
410.0, 0.00491
410.2, 0.0048
410.4, 0.00444
410.6, 0.00425
410.8, 0.00408
411.0, 0.00414
411.2, 0.00435
411.4, 0.00499
411.6, 0.00626
411.8, 0.00809
412.0, 0.01066
412.2, 0.0133
412.4, 0.0157
412.6, 0.01745
412.8, 0.01864
413.0, 0.01899
413.2, 0.01834
413.4, 0.01731
413.6, 0.01531
413.8, 0.01323
414.0, 0.01072
414.2, 0.00899
414.4, 0.00755
414.6, 0.00681
414.8, 0.00662
415.0, 0.00682
415.2, 0.00711
415.4, 0.00774
415.6, 0.00857
415.8, 0.00941
416.0, 0.01024
416.2, 0.01079
416.4, 0.0111
416.6, 0.01085
416.8, 0.01064
417.0, 0.0102
417.2, 0.00933
417.4, 0.00848
417.6, 0.00752
417.8, 0.00672
418.0, 0.00594
418.2, 0.00543
418.4, 0.00508
418.6, 0.00484
418.8, 0.00481
419.0, 0.00499
419.2, 0.00533
419.4, 0.00571
419.6, 0.00627
419.8, 0.00703
420.0, 0.00817
420.2, 0.00937
420.4, 0.01063
420.6, 0.01188
420.8, 0.01315
421.0, 0.01406
421.2, 0.01455
421.4, 0.01499
421.6, 0.0149
421.8, 0.01452
422.0, 0.01385
422.2, 0.01308
422.4, 0.01218
422.6, 0.01116
422.8, 0.01025
423.0, 0.00928
423.2, 0.0086
423.4, 0.00812
423.6, 0.00766
423.8, 0.00742
424.0, 0.00722
424.2, 0.00724
424.4, 0.00746
424.6, 0.00774
424.8, 0.00812
425.0, 0.0086
425.2, 0.00912
425.4, 0.00971
425.6, 0.01024
425.8, 0.01066
426.0, 0.01085
426.2, 0.01085
426.4, 0.0107
426.6, 0.01025
426.8, 0.00961
427.0, 0.00856
427.2, 0.00746
427.4, 0.00653
427.6, 0.00577
427.8, 0.00505
428.0, 0.00459
428.2, 0.00414
428.4, 0.00377
428.6, 0.0037
428.8, 0.00363
429.0, 0.00362
429.2, 0.0038
429.4, 0.00408
429.6, 0.00454
429.8, 0.00512
430.0, 0.00556
430.2, 0.00628
430.4, 0.00674
430.6, 0.00704
430.8, 0.00714
431.0, 0.00712
431.2, 0.00684
431.4, 0.00644
431.6, 0.00592
431.8, 0.00523
432.0, 0.00451
432.2, 0.00374
432.4, 0.00318
432.6, 0.0027
432.8, 0.00235
433.0, 0.00213
433.2, 0.00196
433.4, 0.00187
433.6, 0.00177
433.8, 0.00184
434.0, 0.00186
434.2, 0.00206
434.4, 0.00232
434.6, 0.00269
434.8, 0.00311
435.0, 0.00368
435.2, 0.0043
435.4, 0.00477
435.6, 0.00527
435.8, 0.00548
436.0, 0.00565
436.2, 0.00552
436.4, 0.0053
436.6, 0.00488
436.8, 0.0043
437.0, 0.00375
437.2, 0.00316
437.4, 0.00256
437.6, 0.00212
437.8, 0.00183
438.0, 0.00154
438.2, 0.00141
438.4, 0.00126
438.6, 0.00125
438.8, 0.00119
439.0, 0.00127
439.2, 0.00128
439.4, 0.00141
439.6, 0.00156
439.8, 0.00185
440.0, 0.00212
440.2, 0.0026
440.4, 0.0032
440.6, 0.00398
440.8, 0.00471
441.0, 0.00538
441.2, 0.0059
441.4, 0.00636
441.6, 0.0065
441.8, 0.00649
442.0, 0.00627
442.2, 0.00587
442.4, 0.00528
442.6, 0.0047
442.8, 0.00393
443.0, 0.00331
443.2, 0.00271
443.4, 0.0023
443.6, 0.00202
443.8, 0.00181
444.0, 0.00163
444.2, 0.00163
444.4, 0.00156
444.6, 0.00158
444.8, 0.00161
445.0, 0.00169
445.2, 0.00177
445.4, 0.00199
445.6, 0.00225
445.8, 0.0026
446.0, 0.00319
446.2, 0.004
446.4, 0.00503
446.6, 0.00649
446.8, 0.00818
447.0, 0.00998
447.2, 0.01155
447.4, 0.01286
447.6, 0.01373
447.8, 0.01407
448.0, 0.01402
448.2, 0.0137
448.4, 0.0127
448.6, 0.01132
448.8, 0.00968
449.0, 0.00793
449.2, 0.0062
449.4, 0.00478
449.6, 0.00373
449.8, 0.00293
450.0, 0.00239
450.2, 0.00201
450.4, 0.00178
450.6, 0.00151
450.8, 0.00139
451.0, 0.00128
451.2, 0.00118
451.4, 0.00114
451.6, 0.00115
451.8, 0.00114
452.0, 0.0012
452.2, 0.00125
452.4, 0.00133
452.6, 0.00153
452.8, 0.0017
453.0, 0.00203
453.2, 0.00241
453.4, 0.003
453.6, 0.00367
453.8, 0.00437
454.0, 0.00495
454.2, 0.00538
454.4, 0.00569
454.6, 0.00574
454.8, 0.00568
455.0, 0.00545
455.2, 0.005
455.4, 0.00446
455.6, 0.00374
455.8, 0.00307
456.0, 0.00243
456.2, 0.00187
456.4, 0.00148
456.6, 0.00124
456.8, 0.00104
457.0, 0.00104
457.2, 0.00103
457.4, 0.00104
457.6, 0.00103
457.8, 0.00105
458.0, 0.00116
458.2, 0.00117
458.4, 0.00123
458.6, 0.00132
458.8, 0.0014
459.0, 0.00153
459.2, 0.00176
459.4, 0.00209
459.6, 0.00261
459.8, 0.00327
460.0, 0.00398
460.2, 0.00453
460.4, 0.00503
460.6, 0.00526
460.8, 0.00534
461.0, 0.00529
461.2, 0.00503
461.4, 0.00461
461.6, 0.00403
461.8, 0.00329
462.0, 0.00256
462.2, 0.00196
462.4, 0.00146
462.6, 0.00112
462.8, 8.9052e-04
463.0, 8.0963e-04
463.2, 6.888e-04
463.4, 6.356e-04
463.6, 6.5421e-04
463.8, 6.8238e-04
464.0, 7.2794e-04
464.2, 7.7958e-04
464.4, 7.9459e-04
464.6, 7.9934e-04
464.8, 8.6099e-04
465.0, 9.2629e-04
465.2, 0.00104
465.4, 0.00113
465.6, 0.00132
465.8, 0.00161
466.0, 0.00213
466.2, 0.00286
466.4, 0.00383
466.6, 0.00469
466.8, 0.00535
467.0, 0.00584
467.2, 0.00616
467.4, 0.00629
467.6, 0.00616
467.8, 0.00588
468.0, 0.00543
468.2, 0.00483
468.4, 0.004
468.6, 0.00319
468.8, 0.00233
469.0, 0.00174
469.2, 0.00131
469.4, 0.00105
469.6, 9.4776e-04
469.8, 7.676e-04
470.0, 7.9982e-04
470.2, 6.716e-04
470.4, 6.1157e-04
470.6, 6.5884e-04
470.8, 6.5407e-04
471.0, 7.09e-04
471.2, 6.5205e-04
471.4, 7.3429e-04
471.6, 7.9907e-04
471.8, 8.7818e-04
472.0, 9.7172e-04
472.2, 0.00112
472.4, 0.00135
472.6, 0.00158
472.8, 0.00213
473.0, 0.00276
473.2, 0.00378
473.4, 0.00484
473.6, 0.00598
473.8, 0.00686
474.0, 0.0077
474.2, 0.00821
474.4, 0.00858
474.6, 0.00859
474.8, 0.00844
475.0, 0.00803
475.2, 0.00734
475.4, 0.00648
475.6, 0.00545
475.8, 0.00444
476.0, 0.00364
476.2, 0.00292
476.4, 0.00242
476.6, 0.00204
476.8, 0.00179
477.0, 0.00155
477.2, 0.00151
477.4, 0.00139
477.6, 0.0013
477.8, 0.00131
478.0, 0.00126
478.2, 0.00131
478.4, 0.00128
478.6, 0.00133
478.8, 0.00135
479.0, 0.00145
479.2, 0.00152
479.4, 0.00157
479.6, 0.00175
479.8, 0.00191
480.0, 0.00204
480.2, 0.00228
480.4, 0.0025
480.6, 0.00278
480.8, 0.00315
481.0, 0.00356
481.2, 0.00409
481.4, 0.00475
481.6, 0.00549
481.8, 0.00649
482.0, 0.0076
482.2, 0.00899
482.4, 0.01035
482.6, 0.01184
482.8, 0.01316
483.0, 0.01435
483.2, 0.01529
483.4, 0.01588
483.6, 0.01619
483.8, 0.01603
484.0, 0.01553
484.2, 0.01472
484.4, 0.01362
484.6, 0.0125
484.8, 0.0113
485.0, 0.01003
485.2, 0.00887
485.4, 0.00798
485.6, 0.00726
485.8, 0.00663
486.0, 0.00614
486.2, 0.00581
486.4, 0.00552
486.6, 0.00539
486.8, 0.00526
487.0, 0.00521
487.2, 0.00524
487.4, 0.00531
487.6, 0.00548
487.8, 0.00566
488.0, 0.00592
488.2, 0.00628
488.4, 0.00671
488.6, 0.00722
488.8, 0.00775
489.0, 0.00842
489.2, 0.00907
489.4, 0.00973
489.6, 0.01045
489.8, 0.01107
490.0, 0.01151
490.2, 0.01204
490.4, 0.01244
490.6, 0.01265
490.8, 0.01271
491.0, 0.01268
491.2, 0.01251
491.4, 0.01225
491.6, 0.01195
491.8, 0.01153
492.0, 0.01104
492.2, 0.01065
492.4, 0.01025
492.6, 0.00992
492.8, 0.00956
493.0, 0.00928
493.2, 0.0092
493.4, 0.00905
493.6, 0.00896
493.8, 0.00906
494.0, 0.00915
494.2, 0.00935
494.4, 0.00956
494.6, 0.00983
494.8, 0.01014
495.0, 0.01048
495.2, 0.01085
495.4, 0.01126
495.6, 0.01163
495.8, 0.012
496.0, 0.01242
496.2, 0.01272
496.4, 0.01294
496.6, 0.01308
496.8, 0.01321
497.0, 0.01313
497.2, 0.0132
497.4, 0.01312
497.6, 0.01292
497.8, 0.01264
498.0, 0.01247
498.2, 0.01223
498.4, 0.01195
498.6, 0.01162
498.8, 0.01143
499.0, 0.01116
499.2, 0.01096
499.4, 0.01078
499.6, 0.0106
499.8, 0.01044
500.0, 0.01039
500.2, 0.01036
500.4, 0.01028
500.6, 0.01031
500.8, 0.01035
501.0, 0.01036
501.2, 0.01045
501.4, 0.01051
501.6, 0.01062
501.8, 0.01066
502.0, 0.01075
502.2, 0.01082
502.4, 0.01091
502.6, 0.01101
502.8, 0.01112
503.0, 0.01116
503.2, 0.01116
503.4, 0.01125
503.6, 0.0113
503.8, 0.01138
504.0, 0.01137
504.2, 0.01142
504.4, 0.01146
504.6, 0.01156
504.8, 0.01159
505.0, 0.01171
505.2, 0.01183
505.4, 0.01189
505.6, 0.01199
505.8, 0.01204
506.0, 0.01218
506.2, 0.01224
506.4, 0.01234
506.6, 0.01251
506.8, 0.01264
507.0, 0.01279
507.2, 0.01291
507.4, 0.01296
507.6, 0.01312
507.8, 0.01319
508.0, 0.01328
508.2, 0.01344
508.4, 0.01346
508.6, 0.01352
508.8, 0.01357
509.0, 0.01365
509.2, 0.01371
509.4, 0.01369
509.6, 0.0137
509.8, 0.01358
510.0, 0.01354
510.2, 0.01344
510.4, 0.01334
510.6, 0.01327
510.8, 0.01314
511.0, 0.0131
511.2, 0.01288
511.4, 0.01278
511.6, 0.01259
511.8, 0.01247
512.0, 0.0123
512.2, 0.01216
512.4, 0.01208
512.6, 0.0119
512.8, 0.01179
513.0, 0.01164
513.2, 0.01158
513.4, 0.01151
513.6, 0.01147
513.8, 0.01146
514.0, 0.01142
514.2, 0.0114
514.4, 0.01146
514.6, 0.01159
514.8, 0.01166
515.0, 0.0117
515.2, 0.01186
515.4, 0.01194
515.6, 0.01206
515.8, 0.01216
516.0, 0.01228
516.2, 0.0122
516.4, 0.01231
516.6, 0.01217
516.8, 0.0121
517.0, 0.01188
517.2, 0.01163
517.4, 0.01134
517.6, 0.0109
517.8, 0.01048
518.0, 0.01002
518.2, 0.00951
518.4, 0.009
518.6, 0.00843
518.8, 0.00795
519.0, 0.00743
519.2, 0.00696
519.4, 0.00646
519.6, 0.00599
519.8, 0.00569
520.0, 0.00531
520.2, 0.00499
520.4, 0.00473
520.6, 0.00446
520.8, 0.00428
521.0, 0.00407
521.2, 0.00392
521.4, 0.00382
521.6, 0.0037
521.8, 0.00361
522.0, 0.00354
522.2, 0.00352
522.4, 0.00352
522.6, 0.00353
522.8, 0.00353
523.0, 0.00362
523.2, 0.00368
523.4, 0.00378
523.6, 0.00394
523.8, 0.00413
524.0, 0.00431
524.2, 0.00455
524.4, 0.00486
524.6, 0.00517
524.8, 0.00564
525.0, 0.00608
525.2, 0.00657
525.4, 0.0072
525.6, 0.00786
525.8, 0.0086
526.0, 0.00944
526.2, 0.01023
526.4, 0.01118
526.6, 0.01213
526.8, 0.01301
527.0, 0.01385
527.2, 0.01466
527.4, 0.01537
527.6, 0.0159
527.8, 0.01622
528.0, 0.01656
528.2, 0.01672
528.4, 0.01659
528.6, 0.01637
528.8, 0.016
529.0, 0.01555
529.2, 0.01504
529.4, 0.0143
529.6, 0.0136
529.8, 0.01288
530.0, 0.01218
530.2, 0.01146
530.4, 0.01081
530.6, 0.01022
530.8, 0.0097
531.0, 0.00911
531.2, 0.00861
531.4, 0.0082
531.6, 0.00782
531.8, 0.00743
532.0, 0.00709
532.2, 0.00682
532.4, 0.0065
532.6, 0.0063
532.8, 0.00607
533.0, 0.0059
533.2, 0.00567
533.4, 0.0055
533.6, 0.00541
533.8, 0.00527
534.0, 0.00518
534.2, 0.0051
534.4, 0.00505
534.6, 0.00499
534.8, 0.00499
535.0, 0.00501
535.2, 0.00505
535.4, 0.00511
535.6, 0.00519
535.8, 0.00537
536.0, 0.00553
536.2, 0.00571
536.4, 0.006
536.6, 0.0063
536.8, 0.00663
537.0, 0.00704
537.2, 0.00745
537.4, 0.00794
537.6, 0.00844
537.8, 0.00891
538.0, 0.00939
538.2, 0.00978
538.4, 0.01017
538.6, 0.01048
538.8, 0.01065
539.0, 0.01074
539.2, 0.01066
539.4, 0.01055
539.6, 0.01026
539.8, 0.00985
540.0, 0.00945
540.2, 0.00884
540.4, 0.00825
540.6, 0.00761
540.8, 0.00702
541.0, 0.00639
541.2, 0.00576
541.4, 0.00523
541.6, 0.00471
541.8, 0.00431
542.0, 0.00391
542.2, 0.00358
542.4, 0.0033
542.6, 0.00305
542.8, 0.00286
543.0, 0.00265
543.2, 0.00251
543.4, 0.00242
543.6, 0.00231
543.8, 0.00224
544.0, 0.00219
544.2, 0.00216
544.4, 0.00214
544.6, 0.00213
544.8, 0.00217
545.0, 0.00219
545.2, 0.00224
545.4, 0.00224
545.6, 0.00234
545.8, 0.00243
546.0, 0.0025
546.2, 0.00261
546.4, 0.00275
546.6, 0.00288
546.8, 0.00307
547.0, 0.00325
547.2, 0.00347
547.4, 0.00375
547.6, 0.00407
547.8, 0.00444
548.0, 0.00487
548.2, 0.00537
548.4, 0.00595
548.6, 0.00658
548.8, 0.0073
549.0, 0.00809
549.2, 0.00897
549.4, 0.00996
549.6, 0.01103
549.8, 0.01206
550.0, 0.01318
550.2, 0.01417
550.4, 0.01529
550.6, 0.01614
550.8, 0.01697
551.0, 0.01766
551.2, 0.01814
551.4, 0.01842
551.6, 0.01858
551.8, 0.0186
552.0, 0.01838
552.2, 0.01814
552.4, 0.01769
552.6, 0.01704
552.8, 0.01642
553.0, 0.01569
553.2, 0.01499
553.4, 0.01427
553.6, 0.01356
553.8, 0.0129
554.0, 0.01225
554.2, 0.01171
554.4, 0.01111
554.6, 0.01061
554.8, 0.01021
555.0, 0.0098
555.2, 0.00943
555.4, 0.00907
555.6, 0.00873
555.8, 0.00844
556.0, 0.00822
556.2, 0.00793
556.4, 0.00772
556.6, 0.00751
556.8, 0.00736
557.0, 0.00718
557.2, 0.00705
557.4, 0.00691
557.6, 0.0068
557.8, 0.0067
558.0, 0.00667
558.2, 0.00662
558.4, 0.00661
558.6, 0.00661
558.8, 0.0066
559.0, 0.00668
559.2, 0.00676
559.4, 0.00685
559.6, 0.007
559.8, 0.00719
560.0, 0.00743
560.2, 0.00767
560.4, 0.00794
560.6, 0.00832
560.8, 0.00878
561.0, 0.00917
561.2, 0.00966
561.4, 0.01013
561.6, 0.01058
561.8, 0.01113
562.0, 0.01155
562.2, 0.012
562.4, 0.01244
562.6, 0.01279
562.8, 0.01301
563.0, 0.01316
563.2, 0.01321
563.4, 0.01318
563.6, 0.01298
563.8, 0.0127
564.0, 0.01238
564.2, 0.01195
564.4, 0.01148
564.6, 0.01083
564.8, 0.01027
565.0, 0.00971
565.2, 0.00906
565.4, 0.00848
565.6, 0.00788
565.8, 0.00734
566.0, 0.00684
566.2, 0.0064
566.4, 0.00599
566.6, 0.00567
566.8, 0.00537
567.0, 0.00513
567.2, 0.00491
567.4, 0.00472
567.6, 0.00456
567.8, 0.00442
568.0, 0.00432
568.2, 0.00422
568.4, 0.00415
568.6, 0.00411
568.8, 0.00408
569.0, 0.00404
569.2, 0.00401
569.4, 0.00401
569.6, 0.00405
569.8, 0.00406
570.0, 0.0041
570.2, 0.00413
570.4, 0.00422
570.6, 0.00433
570.8, 0.00443
571.0, 0.00458
571.2, 0.00472
571.4, 0.00494
571.6, 0.00515
571.8, 0.00542
572.0, 0.0057
572.2, 0.00601
572.4, 0.00638
572.6, 0.00674
572.8, 0.00721
573.0, 0.00765
573.2, 0.00816
573.4, 0.00871
573.6, 0.00929
573.8, 0.00989
574.0, 0.01056
574.2, 0.01122
574.4, 0.01191
574.6, 0.01261
574.8, 0.01334
575.0, 0.014
575.2, 0.0147
575.4, 0.01533
575.6, 0.01592
575.8, 0.01647
576.0, 0.01698
576.2, 0.01745
576.4, 0.01777
576.6, 0.01803
576.8, 0.01823
577.0, 0.01837
577.2, 0.01836
577.4, 0.01827
577.6, 0.01815
577.8, 0.01801
578.0, 0.01772
578.2, 0.0175
578.4, 0.01721
578.6, 0.01691
578.8, 0.01659
579.0, 0.01624
579.2, 0.01594
579.4, 0.01559
579.6, 0.0153
579.8, 0.01499
580.0, 0.01466
580.2, 0.01437
580.4, 0.01411
580.6, 0.01385
580.8, 0.01359
581.0, 0.01341
581.2, 0.01319
581.4, 0.01295
581.6, 0.01281
581.8, 0.01261
582.0, 0.01245
582.2, 0.01224
582.4, 0.0121
582.6, 0.01199
582.8, 0.01187
583.0, 0.01178
583.2, 0.01169
583.4, 0.01162
583.6, 0.01157
583.8, 0.01152
584.0, 0.01147
584.2, 0.01145
584.4, 0.01141
584.6, 0.01139
584.8, 0.01143
585.0, 0.01147
585.2, 0.01148
585.4, 0.01152
585.6, 0.01152
585.8, 0.01154
586.0, 0.01158
586.2, 0.01156
586.4, 0.01155
586.6, 0.01157
586.8, 0.01152
587.0, 0.01153
587.2, 0.01143
587.4, 0.01135
587.6, 0.01124
587.8, 0.01116
588.0, 0.0111
588.2, 0.01093
588.4, 0.01081
588.6, 0.01072
588.8, 0.01055
589.0, 0.01039
589.2, 0.01021
589.4, 0.01003
589.6, 0.00994
589.8, 0.00984
590.0, 0.00969
590.2, 0.00953
590.4, 0.00943
590.6, 0.0093
590.8, 0.00924
591.0, 0.00915
591.2, 0.00906
591.4, 0.00897
591.6, 0.00885
591.8, 0.00875
592.0, 0.00865
592.2, 0.00852
592.4, 0.00841
592.6, 0.00828
592.8, 0.00817
593.0, 0.00799
593.2, 0.00789
593.4, 0.00773
593.6, 0.00763
593.8, 0.00746
594.0, 0.00732
594.2, 0.00722
594.4, 0.00712
594.6, 0.00703
594.8, 0.00695
595.0, 0.00689
595.2, 0.00683
595.4, 0.00678
595.6, 0.00676
595.8, 0.00674
596.0, 0.00672
596.2, 0.00668
596.4, 0.00668
596.6, 0.00662
596.8, 0.00656
597.0, 0.00656
597.2, 0.0065
597.4, 0.00643
597.6, 0.00634
597.8, 0.00629
598.0, 0.00619
598.2, 0.00607
598.4, 0.00596
598.6, 0.00582
598.8, 0.00568
599.0, 0.00559
599.2, 0.00549
599.4, 0.00536
599.6, 0.00524
599.8, 0.00512
600.0, 0.00498
600.2, 0.00488
600.4, 0.00476
600.6, 0.00463
600.8, 0.00454
601.0, 0.00443
601.2, 0.00434
601.4, 0.00428
601.6, 0.00422
601.8, 0.00414
602.0, 0.00407
602.2, 0.00405
602.4, 0.00401
602.6, 0.00398
602.8, 0.00397
603.0, 0.00401
603.2, 0.00405
603.4, 0.00411
603.6, 0.00421
603.8, 0.00434
604.0, 0.00446
604.2, 0.00467
604.4, 0.00494
604.6, 0.00524
604.8, 0.00559
605.0, 0.006
605.2, 0.00652
605.4, 0.00717
605.6, 0.00785
605.8, 0.0087
606.0, 0.00964
606.2, 0.01071
606.4, 0.01188
606.6, 0.01309
606.8, 0.01431
607.0, 0.01544
607.2, 0.01643
607.4, 0.0173
607.6, 0.01789
607.8, 0.01818
608.0, 0.01894
608.2, 0.01927
608.4, 0.0189
608.6, 0.0183
608.8, 0.01757
609.0, 0.0165
609.2, 0.01527
609.4, 0.01404
609.6, 0.0128
609.8, 0.01154
610.0, 0.01039
610.2, 0.00924
610.4, 0.00822
610.6, 0.00737
610.8, 0.00665
611.0, 0.00601
611.2, 0.00548
611.4, 0.00501
611.6, 0.00463
611.8, 0.00432
612.0, 0.00404
612.2, 0.00381
612.4, 0.00364
612.6, 0.00346
612.8, 0.00332
613.0, 0.00317
613.2, 0.00308
613.4, 0.00298
613.6, 0.0029
613.8, 0.00283
614.0, 0.00277
614.2, 0.00272
614.4, 0.00267
614.6, 0.00263
614.8, 0.00258
615.0, 0.00256
615.2, 0.00252
615.4, 0.0025
615.6, 0.00247
615.8, 0.00245
616.0, 0.00242
616.2, 0.0024
616.4, 0.0024
616.6, 0.00236
616.8, 0.00235
617.0, 0.00234
617.2, 0.00232
617.4, 0.00228
617.6, 0.00229
617.8, 0.00225
618.0, 0.00226
618.2, 0.00223
618.4, 0.00221
618.6, 0.00221
618.8, 0.00219
619.0, 0.00214
619.2, 0.00212
619.4, 0.00209
619.6, 0.00207
619.8, 0.00208
620.0, 0.00203
620.2, 0.00205
620.4, 0.00203
620.6, 0.00199
620.8, 0.00196
621.0, 0.00194
621.2, 0.00193
621.4, 0.00191
621.6, 0.00191
621.8, 0.00188
622.0, 0.00185
622.2, 0.00184
622.4, 0.00185
622.6, 0.00182
622.8, 0.00181
623.0, 0.00179
623.2, 0.0018
623.4, 0.00177
623.6, 0.00178
623.8, 0.00175
624.0, 0.00175
624.2, 0.00173
624.4, 0.00172
624.6, 0.00173
624.8, 0.00171
625.0, 0.0017
625.2, 0.00171
625.4, 0.00169
625.6, 0.0017
625.8, 0.00169
626.0, 0.0017
626.2, 0.00168
626.4, 0.00167
626.6, 0.00168
626.8, 0.00169
627.0, 0.00168
627.2, 0.0017
627.4, 0.00172
627.6, 0.00169
627.8, 0.00171
628.0, 0.00172
628.2, 0.00172
628.4, 0.00174
628.6, 0.00173
628.8, 0.00173
629.0, 0.00176
629.2, 0.00177
629.4, 0.0018
629.6, 0.00181
629.8, 0.00182
630.0, 0.00184
630.2, 0.00188
630.4, 0.00189
630.6, 0.0019
630.8, 0.00195
631.0, 0.00197
631.2, 0.00201
631.4, 0.00205
631.6, 0.00207
631.8, 0.00214
632.0, 0.00219
632.2, 0.00222
632.4, 0.0023
632.6, 0.00235
632.8, 0.00242
633.0, 0.00248
633.2, 0.00254
633.4, 0.00261
633.6, 0.0027
633.8, 0.00279
634.0, 0.00293
634.2, 0.00297
634.4, 0.00307
634.6, 0.00319
634.8, 0.00332
635.0, 0.00342
635.2, 0.00356
635.4, 0.00366
635.6, 0.0038
635.8, 0.00392
636.0, 0.00407
636.2, 0.00419
636.4, 0.00434
636.6, 0.00449
636.8, 0.00462
637.0, 0.00474
637.2, 0.00485
637.4, 0.00502
637.6, 0.00513
637.8, 0.00524
638.0, 0.00536
638.2, 0.00545
638.4, 0.00552
638.6, 0.00564
638.8, 0.00572
639.0, 0.00578
639.2, 0.00584
639.4, 0.00591
639.6, 0.00597
639.8, 0.00604
640.0, 0.00611
640.2, 0.00614
640.4, 0.00622
640.6, 0.00621
640.8, 0.00629
641.0, 0.00633
641.2, 0.00639
641.4, 0.00644
641.6, 0.0065
641.8, 0.00658
642.0, 0.00669
642.2, 0.00676
642.4, 0.00687
642.6, 0.00696
642.8, 0.0071
643.0, 0.00722
643.2, 0.00737
643.4, 0.00754
643.6, 0.00772
643.8, 0.00791
644.0, 0.00812
644.2, 0.00841
644.4, 0.00867
644.6, 0.00896
644.8, 0.00924
645.0, 0.00961
645.2, 0.01
645.4, 0.01044
645.6, 0.01095
645.8, 0.01151
646.0, 0.01211
646.2, 0.01264
646.4, 0.01339
646.6, 0.01423
646.8, 0.01513
647.0, 0.01617
647.2, 0.01715
647.4, 0.01839
647.6, 0.01981
647.8, 0.0213
648.0, 0.02305
648.2, 0.02504
648.4, 0.02728
648.6, 0.02975
648.8, 0.03241
649.0, 0.03557
649.2, 0.03913
649.4, 0.04323
649.6, 0.04772
649.8, 0.05273
650.0, 0.05829
650.2, 0.06455
650.4, 0.07179
650.6, 0.07949
650.8, 0.08858
651.0, 0.09819
651.2, 0.10896
651.4, 0.12124
651.6, 0.13332
651.8, 0.14715
652.0, 0.16144
652.2, 0.17703
652.4, 0.19346
652.6, 0.21041
652.8, 0.22781
653.0, 0.24434
653.2, 0.26211
653.4, 0.2801
653.6, 0.29775
653.8, 0.31532
654.0, 0.33076
654.2, 0.34523
654.4, 0.35983
654.6, 0.37378
654.8, 0.38668
655.0, 0.39802
655.2, 0.40881
655.4, 0.41956
655.6, 0.42711
655.8, 0.43408
656.0, 0.44111
656.2, 0.44707
656.4, 0.45294
656.6, 0.45849
656.8, 0.4626
657.0, 0.4675
657.2, 0.47028
657.4, 0.47302
657.6, 0.47567
657.8, 0.47951
658.0, 0.48268
658.2, 0.48712
658.4, 0.49044
658.6, 0.49536
658.8, 0.50046
659.0, 0.50694
659.2, 0.51117
659.4, 0.51705
659.6, 0.52436
659.8, 0.53245
660.0, 0.54124
660.2, 0.54953
660.4, 0.5608
660.6, 0.57463
660.8, 0.5898
661.0, 0.60576
661.2, 0.62254
661.4, 0.64016
661.6, 0.65855
661.8, 0.67765
662.0, 0.70029
662.2, 0.7234
662.4, 0.74867
662.6, 0.77478
662.8, 0.79773
663.0, 0.81865
663.2, 0.83873
663.4, 0.85915
663.6, 0.8776
663.8, 0.89352
664.0, 0.90894
664.2, 0.92141
664.4, 0.93191
664.6, 0.93847
664.8, 0.94533
665.0, 0.95214
665.2, 0.95598
665.4, 0.95856
665.6, 0.95891
665.8, 0.95769
666.0, 0.95849
666.2, 0.96031
666.4, 0.9618
666.6, 0.96481
666.8, 0.96476
667.0, 0.96504
667.2, 0.9639
667.4, 0.96431
667.6, 0.9634
667.8, 0.96646
668.0, 0.96772
668.2, 0.96956
668.4, 0.9708
668.6, 0.97241
668.8, 0.97508
669.0, 0.97556
669.2, 0.9782
669.4, 0.9797
669.6, 0.97998
669.8, 0.9803
670.0, 0.97955
670.2, 0.98216
670.4, 0.98235
670.6, 0.98225
670.8, 0.98326
671.0, 0.98449
671.2, 0.98459
671.4, 0.98367
671.6, 0.98342
671.8, 0.98407
672.0, 0.98417
672.2, 0.98226
672.4, 0.98065
672.6, 0.98141
672.8, 0.98039
673.0, 0.97939
673.2, 0.98039
673.4, 0.98249
673.6, 0.98423
673.8, 0.98377
674.0, 0.98161
674.2, 0.98221
674.4, 0.98167
674.6, 0.98214
674.8, 0.9821
675.0, 0.98309
675.2, 0.98272
675.4, 0.98005
675.6, 0.97884
675.8, 0.97863
676.0, 0.97978
676.2, 0.9814
676.4, 0.97952
676.6, 0.97766
676.8, 0.97849
677.0, 0.98055
677.2, 0.98013
677.4, 0.97721
677.6, 0.9769
677.8, 0.97444
678.0, 0.97407
678.2, 0.97588
678.4, 0.97502
678.6, 0.97491
678.8, 0.97424
679.0, 0.9744
679.2, 0.97555
679.4, 0.97593
679.6, 0.97603
679.8, 0.97807
680.0, 0.97717
680.2, 0.9781
680.4, 0.97855
680.6, 0.97889
680.8, 0.97675
681.0, 0.97782
681.2, 0.97741
681.4, 0.97603
681.6, 0.9763
681.8, 0.97723
682.0, 0.97762
682.2, 0.97714
682.4, 0.97623
682.6, 0.97567
682.8, 0.97724
683.0, 0.97872
683.2, 0.97975
683.4, 0.97855
683.6, 0.97675
683.8, 0.97671
684.0, 0.97711
684.2, 0.97767
684.4, 0.97833
684.6, 0.97923
684.8, 0.97601
685.0, 0.97512
685.2, 0.97448
685.4, 0.97443
685.6, 0.97245
685.8, 0.97031
686.0, 0.96907
686.2, 0.96988
686.4, 0.97036
686.6, 0.97132
686.8, 0.96976
687.0, 0.96991
687.2, 0.96805
687.4, 0.96556
687.6, 0.96468
687.8, 0.96289
688.0, 0.96281
688.2, 0.96114
688.4, 0.95913
688.6, 0.96183
688.8, 0.96171
689.0, 0.96225
689.2, 0.96324
689.4, 0.96285
689.6, 0.96369
689.8, 0.96277
690.0, 0.9635
690.2, 0.96398
690.4, 0.9635
690.6, 0.96417
690.8, 0.96614
691.0, 0.96745
691.2, 0.96837
691.4, 0.96903
691.6, 0.96954
691.8, 0.96878
692.0, 0.96807
692.2, 0.9695
692.4, 0.97099
692.6, 0.97291
692.8, 0.97408
693.0, 0.97433
693.2, 0.97289
693.4, 0.97353
693.6, 0.97629
693.8, 0.97786
694.0, 0.97639
694.2, 0.97821
694.4, 0.97736
694.6, 0.97736
694.8, 0.97737
695.0, 0.97815
695.2, 0.97713
695.4, 0.97681
695.6, 0.97814
695.8, 0.97705
696.0, 0.97336
696.2, 0.97363
696.4, 0.97252
696.6, 0.97091
696.8, 0.96909
697.0, 0.97105
697.2, 0.97234
697.4, 0.97098
697.6, 0.96979
697.8, 0.97162
698.0, 0.97151
698.2, 0.97195
698.4, 0.97012
698.6, 0.97067
698.8, 0.97018
699.0, 0.97166
699.2, 0.97106
699.4, 0.97263
699.6, 0.9721
699.8, 0.97242
700.0, 0.9717
700.2, 0.97059
700.4, 0.97118
700.6, 0.97348
700.8, 0.97388
701.0, 0.97612
701.2, 0.97796
701.4, 0.98086
701.6, 0.98102
701.8, 0.97803
702.0, 0.97875
702.2, 0.98097
702.4, 0.98102
702.6, 0.98093
702.8, 0.9835
703.0, 0.98302
703.2, 0.98241
703.4, 0.98391
703.6, 0.9822
703.8, 0.98055
704.0, 0.9798
704.2, 0.98073
704.4, 0.98039
704.6, 0.97921
704.8, 0.97784
705.0, 0.97601
705.2, 0.97672
705.4, 0.97882
705.6, 0.97941
705.8, 0.98073
706.0, 0.97942
706.2, 0.97706
706.4, 0.97548
706.6, 0.97608
706.8, 0.97556
707.0, 0.9756
707.2, 0.97564
707.4, 0.97354
707.6, 0.97131
707.8, 0.97114
708.0, 0.97007
708.2, 0.96842
708.4, 0.96894
708.6, 0.96967
708.8, 0.9707
709.0, 0.9737
709.2, 0.97171
709.4, 0.97117
709.6, 0.97273
709.8, 0.97218
710.0, 0.97244
710.2, 0.97187
710.4, 0.97314
710.6, 0.97471
710.8, 0.97514
711.0, 0.97372
711.2, 0.97581
711.4, 0.97621
711.6, 0.97598
711.8, 0.97688
712.0, 0.97712
712.2, 0.97761
712.4, 0.97812
712.6, 0.97965
712.8, 0.97959
713.0, 0.9783
713.2, 0.97906
713.4, 0.98084
713.6, 0.98148
713.8, 0.98091
714.0, 0.98183
714.2, 0.98198
714.4, 0.98101
714.6, 0.98205
714.8, 0.98209
715.0, 0.98525
715.2, 0.98535
715.4, 0.98429
715.6, 0.98176
715.8, 0.98245
716.0, 0.98365
716.2, 0.98161
716.4, 0.98333
716.6, 0.98105
716.8, 0.98111
717.0, 0.97961
717.2, 0.98046
717.4, 0.97945
717.6, 0.97599
717.8, 0.97411
718.0, 0.97478
718.2, 0.9757
718.4, 0.97347
718.6, 0.97219
718.8, 0.97169
719.0, 0.97195
719.2, 0.97279
719.4, 0.97081
719.6, 0.97273
719.8, 0.97193
720.0, 0.96927
720.2, 0.97252
720.4, 0.97088
720.6, 0.96888
720.8, 0.96767
721.0, 0.96904
721.2, 0.96819
721.4, 0.96932
721.6, 0.96802
721.8, 0.96871
722.0, 0.9688
722.2, 0.96832
722.4, 0.96896
722.6, 0.97158
722.8, 0.97267
723.0, 0.97179
723.2, 0.97228
723.4, 0.97538
723.6, 0.97758
723.8, 0.9794
724.0, 0.98029
724.2, 0.98067
724.4, 0.97879
724.6, 0.97746
724.8, 0.97701
725.0, 0.97867
725.2, 0.98124
725.4, 0.98267
725.6, 0.98322
725.8, 0.98196
726.0, 0.98108
726.2, 0.98316
726.4, 0.98229
726.6, 0.98314
726.8, 0.98579
727.0, 0.98512
727.2, 0.98709
727.4, 0.98718
727.6, 0.98472
727.8, 0.98441
728.0, 0.98405
728.2, 0.98418
728.4, 0.98434
728.6, 0.98483
728.8, 0.98273
729.0, 0.98033
729.2, 0.97875
729.4, 0.9786
729.6, 0.97793
729.8, 0.97641
730.0, 0.97562
730.2, 0.97494
730.4, 0.9733
730.6, 0.97164
730.8, 0.9731
731.0, 0.97553
731.2, 0.97493
731.4, 0.9716
731.6, 0.97008
731.8, 0.97108
732.0, 0.97081
732.2, 0.97185
732.4, 0.96991
732.6, 0.97045
732.8, 0.96909
733.0, 0.96869
733.2, 0.96834
733.4, 0.96695
733.6, 0.96708
733.8, 0.96556
734.0, 0.96368
734.2, 0.96346
734.4, 0.96615
734.6, 0.97
734.8, 0.96872
735.0, 0.96826
735.2, 0.96928
735.4, 0.96876
735.6, 0.96956
735.8, 0.97179
736.0, 0.9751
736.2, 0.97891
736.4, 0.97894
736.6, 0.97851
736.8, 0.97745
737.0, 0.9782
737.2, 0.97963
737.4, 0.97878
737.6, 0.98164
737.8, 0.98259
738.0, 0.98483
738.2, 0.98734
738.4, 0.98712
738.6, 0.9854
738.8, 0.98516
739.0, 0.98646
739.2, 0.98719
739.4, 0.98787
739.6, 0.98672
739.8, 0.98813
740.0, 0.98928
740.2, 0.9874
740.4, 0.98659
740.6, 0.986
740.8, 0.98381
741.0, 0.98391
741.2, 0.98561
741.4, 0.98438
741.6, 0.98613
741.8, 0.98695
742.0, 0.98386
742.2, 0.98065
742.4, 0.97828
742.6, 0.97769
742.8, 0.9787
743.0, 0.97817
743.2, 0.97654
743.4, 0.97554
743.6, 0.97494
743.8, 0.97402
744.0, 0.97295
744.2, 0.97128
744.4, 0.97311
744.6, 0.97458
744.8, 0.97361
745.0, 0.97229
745.2, 0.97312
745.4, 0.97336
745.6, 0.97293
745.8, 0.97284
746.0, 0.97002
746.2, 0.96982
746.4, 0.96958
746.6, 0.97057
746.8, 0.96948
747.0, 0.96974
747.2, 0.97047
747.4, 0.97123
747.6, 0.97248
747.8, 0.97514
748.0, 0.97523
748.2, 0.97582
748.4, 0.97735
748.6, 0.97833
748.8, 0.97824
749.0, 0.9771
749.2, 0.97776
749.4, 0.9807
749.6, 0.98198
749.8, 0.98109
750.0, 0.98078
750.2, 0.98098
750.4, 0.97951
750.6, 0.98096
750.8, 0.98208
751.0, 0.98234
751.2, 0.98301
751.4, 0.98313
751.6, 0.9857
751.8, 0.98583
752.0, 0.98349
752.2, 0.9819
752.4, 0.98115
752.6, 0.98107
752.8, 0.98021
753.0, 0.98101
753.2, 0.9813
753.4, 0.98209
753.6, 0.98218
753.8, 0.98243
754.0, 0.98287
754.2, 0.98191
754.4, 0.98196
754.6, 0.98278
754.8, 0.98221
755.0, 0.98154
755.2, 0.97903
755.4, 0.97715
755.6, 0.97734
755.8, 0.97737
756.0, 0.97624
756.2, 0.97438
756.4, 0.97328
756.6, 0.97209
756.8, 0.97062
757.0, 0.96973
757.2, 0.97014
757.4, 0.96826
757.6, 0.96616
757.8, 0.96487
758.0, 0.96395
758.2, 0.96547
758.4, 0.96611
758.6, 0.96415
758.8, 0.96364
759.0, 0.96417
759.2, 0.96395
759.4, 0.96517
759.6, 0.96782
759.8, 0.96818
760.0, 0.96686
760.2, 0.96614
760.4, 0.96755
760.6, 0.96692
760.8, 0.96762
761.0, 0.97032
761.2, 0.97305
761.4, 0.9715
761.6, 0.97173
761.8, 0.97138
762.0, 0.97189
762.2, 0.97431
762.4, 0.97661
762.6, 0.97604
762.8, 0.97534
763.0, 0.97565
763.2, 0.97665
763.4, 0.97942
763.6, 0.97971
763.8, 0.98133
764.0, 0.98355
764.2, 0.98594
764.4, 0.98623
764.6, 0.98604
764.8, 0.98618
765.0, 0.98538
765.2, 0.98594
765.4, 0.9857
765.6, 0.98535
765.8, 0.98655
766.0, 0.98959
766.2, 0.99114
766.4, 0.99149
766.6, 0.99157
766.8, 0.99064
767.0, 0.99019
767.2, 0.98978
767.4, 0.98963
767.6, 0.98904
767.8, 0.98867
768.0, 0.98742
768.2, 0.98668
768.4, 0.98618
768.6, 0.9855
768.8, 0.98429
769.0, 0.98192
769.2, 0.98024
769.4, 0.97974
769.6, 0.98
769.8, 0.97907
770.0, 0.97829
770.2, 0.97776
770.4, 0.977
770.6, 0.97487
770.8, 0.97501
771.0, 0.97233
771.2, 0.97187
771.4, 0.96915
771.6, 0.97003
771.8, 0.96913
772.0, 0.96777
772.2, 0.96759
772.4, 0.96972
772.6, 0.97106
772.8, 0.97046
773.0, 0.96834
773.2, 0.96724
773.4, 0.96632
773.6, 0.96553
773.8, 0.96459
774.0, 0.96652
774.2, 0.96709
774.4, 0.96622
774.6, 0.9647
774.8, 0.96527
775.0, 0.96758
775.2, 0.96951
775.4, 0.97153
775.6, 0.97132
775.8, 0.97185
776.0, 0.97177
776.2, 0.97124
776.4, 0.97198
776.6, 0.97274
776.8, 0.97294
777.0, 0.97523
777.2, 0.9771
777.4, 0.98034
777.6, 0.97959
777.8, 0.97778
778.0, 0.97949
778.2, 0.98224
778.4, 0.98097
778.6, 0.97914
778.8, 0.97975
779.0, 0.98117
779.2, 0.98198
779.4, 0.98337
779.6, 0.9849
779.8, 0.98589
780.0, 0.98492
780.2, 0.98501
780.4, 0.98701
780.6, 0.9867
780.8, 0.98736
781.0, 0.98789
781.2, 0.98574
781.4, 0.98626
781.6, 0.98436
781.8, 0.98384
782.0, 0.98501
782.2, 0.98556
782.4, 0.98372
782.6, 0.98474
782.8, 0.98436
783.0, 0.9843
783.2, 0.98384
783.4, 0.98291
783.6, 0.98177
783.8, 0.98014
784.0, 0.97998
784.2, 0.9784
784.4, 0.97785
784.6, 0.9761
784.8, 0.97646
785.0, 0.97728
785.2, 0.97461
785.4, 0.97151
785.6, 0.97263
785.8, 0.97203
786.0, 0.96986
786.2, 0.96681
786.4, 0.96642
786.6, 0.96585
786.8, 0.96542
787.0, 0.96502
787.2, 0.96416
787.4, 0.9655
787.6, 0.96711
787.8, 0.9671
788.0, 0.96428
788.2, 0.96457
788.4, 0.96836
788.6, 0.9701
788.8, 0.9709
789.0, 0.97259
789.2, 0.96948
789.4, 0.96959
789.6, 0.96775
789.8, 0.96714
790.0, 0.9681
790.2, 0.96861
790.4, 0.97019
790.6, 0.97217
790.8, 0.97066
791.0, 0.97106
791.2, 0.97128
791.4, 0.97139
791.6, 0.97288
791.8, 0.97498
792.0, 0.97685
792.2, 0.97732
792.4, 0.97775
792.6, 0.98037
792.8, 0.9818
793.0, 0.98064
793.2, 0.98005
793.4, 0.98049
793.6, 0.98095
793.8, 0.9807
794.0, 0.98141
794.2, 0.98399
794.4, 0.98362
794.6, 0.9851
794.8, 0.98641
795.0, 0.98807
795.2, 0.98728
795.4, 0.98718
795.6, 0.98887
795.8, 0.99071
796.0, 0.9899
796.2, 0.98833
796.4, 0.98889
796.6, 0.98981
796.8, 0.98918
797.0, 0.99185
797.2, 0.99249
797.4, 0.99214
797.6, 0.9908
797.8, 0.99031
798.0, 0.98881
798.2, 0.98764
798.4, 0.9873
798.6, 0.98481
798.8, 0.98511
799.0, 0.98513
799.2, 0.98377
799.4, 0.98376
799.6, 0.98226
799.8, 0.98203
800.0, 0.98101
800.2, 0.98241
800.4, 0.9792
800.6, 0.97717
800.8, 0.97723
801.0, 0.97796
801.2, 0.97575
801.4, 0.97528
801.6, 0.97689
801.8, 0.97434
802.0, 0.97386
802.2, 0.97497
802.4, 0.97514
802.6, 0.97569
802.8, 0.97385
803.0, 0.9747
803.2, 0.97541
803.4, 0.9739
803.6, 0.97365
803.8, 0.97327
804.0, 0.97307
804.2, 0.97557
804.4, 0.97607
804.6, 0.97745
804.8, 0.97689
805.0, 0.9757
805.2, 0.97276
805.4, 0.97175
805.6, 0.97295
805.8, 0.97399
806.0, 0.97335
806.2, 0.9728
806.4, 0.97302
806.6, 0.97541
806.8, 0.97753
807.0, 0.97756
807.2, 0.97722
807.4, 0.98077
807.6, 0.98183
807.8, 0.98223
808.0, 0.98289
808.2, 0.98375
808.4, 0.98177
808.6, 0.98232
808.8, 0.98394
809.0, 0.9856
809.2, 0.98515
809.4, 0.98573
809.6, 0.98753
809.8, 0.98724
810.0, 0.98842
810.2, 0.99144
810.4, 0.99209
810.6, 0.99117
810.8, 0.99312
811.0, 0.99309
811.2, 0.99195
811.4, 0.99079
811.6, 0.99242
811.8, 0.99268
812.0, 0.99273
812.2, 0.99257
812.4, 0.9946
812.6, 0.99706
812.8, 0.99649
813.0, 0.9944
813.2, 0.99252
813.4, 0.99209
813.6, 0.99176
813.8, 0.99034
814.0, 0.99044
814.2, 0.98923
814.4, 0.98971
814.6, 0.99038
814.8, 0.98957
815.0, 0.98763
815.2, 0.98762
815.4, 0.99021
815.6, 0.98974
815.8, 0.98918
816.0, 0.98806
816.2, 0.9865
816.4, 0.98514
816.6, 0.98347
816.8, 0.98122
817.0, 0.97948
817.2, 0.97861
817.4, 0.97758
817.6, 0.97801
817.8, 0.97817
818.0, 0.9786
818.2, 0.98138
818.4, 0.97993
818.6, 0.97699
818.8, 0.97579
819.0, 0.97677
819.2, 0.97665
819.4, 0.97642
819.6, 0.97579
819.8, 0.97607
820.0, 0.9775
820.2, 0.97694
820.4, 0.97646
820.6, 0.97652
820.8, 0.97254
821.0, 0.97342
821.2, 0.97639
821.4, 0.97701
821.6, 0.97831
821.8, 0.97941
822.0, 0.97777
822.2, 0.97658
822.4, 0.97556
822.6, 0.97662
822.8, 0.97842
823.0, 0.97872
823.2, 0.97835
823.4, 0.97888
823.6, 0.97889
823.8, 0.97898
824.0, 0.98164
824.2, 0.98254
824.4, 0.98399
824.6, 0.98377
824.8, 0.9853
825.0, 0.98522
825.2, 0.98358
825.4, 0.98254
825.6, 0.98394
825.8, 0.9842
826.0, 0.9822
826.2, 0.98191
826.4, 0.98417
826.6, 0.98411
826.8, 0.98368
827.0, 0.98442
827.2, 0.98275
827.4, 0.98252
827.6, 0.98316
827.8, 0.98578
828.0, 0.98769
828.2, 0.9891
828.4, 0.98868
828.6, 0.98824
828.8, 0.988
829.0, 0.98721
829.2, 0.98777
829.4, 0.9894
829.6, 0.98652
829.8, 0.98329
830.0, 0.98353
830.2, 0.98551
830.4, 0.9853
830.6, 0.98486
830.8, 0.98612
831.0, 0.98704
831.2, 0.98446
831.4, 0.98304
831.6, 0.98273
831.8, 0.9836
832.0, 0.98255
832.2, 0.98121
832.4, 0.98161
832.6, 0.98094
832.8, 0.97864
833.0, 0.97727
833.2, 0.97775
833.4, 0.97737
833.6, 0.97855
833.8, 0.98045
834.0, 0.97766
834.2, 0.97606
834.4, 0.97408
834.6, 0.97336
834.8, 0.97227
835.0, 0.97353
835.2, 0.97316
835.4, 0.97438
835.6, 0.97483
835.8, 0.97675
836.0, 0.97627
836.2, 0.97439
836.4, 0.97353
836.6, 0.97247
836.8, 0.97101
837.0, 0.97126
837.2, 0.97285
837.4, 0.97444
837.6, 0.97344
837.8, 0.9694
838.0, 0.96772
838.2, 0.96791
838.4, 0.96953
838.6, 0.96885
838.8, 0.96809
839.0, 0.96787
839.2, 0.9683
839.4, 0.96917
839.6, 0.97045
839.8, 0.9726
840.0, 0.97505
840.2, 0.97515
840.4, 0.97439
840.6, 0.97405
840.8, 0.97632
841.0, 0.97574
841.2, 0.97527
841.4, 0.9746
841.6, 0.97387
841.8, 0.97423
842.0, 0.97501
842.2, 0.97708
842.4, 0.97791
842.6, 0.97891
842.8, 0.97882
843.0, 0.97777
843.2, 0.97933
843.4, 0.98019
843.6, 0.97816
843.8, 0.97858
844.0, 0.97832
844.2, 0.97856
844.4, 0.97921
844.6, 0.97749
844.8, 0.97805
845.0, 0.97821
845.2, 0.97919
845.4, 0.97943
845.6, 0.97937
845.8, 0.9804
846.0, 0.98278
846.2, 0.98371
846.4, 0.9843
846.6, 0.98466
846.8, 0.98553
847.0, 0.98716
847.2, 0.98814
847.4, 0.98828
847.6, 0.98714
847.8, 0.98447
848.0, 0.98258
848.2, 0.98469
848.4, 0.98734
848.6, 0.98634
848.8, 0.98475
849.0, 0.9836
849.2, 0.98177
849.4, 0.98139
849.6, 0.98168
849.8, 0.98341
850.0, 0.9827
850.2, 0.98152
850.4, 0.98045
850.6, 0.97987
850.8, 0.97841
851.0, 0.97577
851.2, 0.97658
851.4, 0.97841
851.6, 0.97975
851.8, 0.9796
852.0, 0.97717
852.2, 0.97611
852.4, 0.97704
852.6, 0.97913
852.8, 0.98006
853.0, 0.9799
853.2, 0.97871
853.4, 0.98027
853.6, 0.98178
853.8, 0.98209
854.0, 0.98292
854.2, 0.98154
854.4, 0.98111
854.6, 0.97927
854.8, 0.9798
855.0, 0.98142
855.2, 0.98054
855.4, 0.98025
855.6, 0.98133
855.8, 0.9808
856.0, 0.981
856.2, 0.98141
856.4, 0.98084
856.6, 0.98039
856.8, 0.98089
857.0, 0.98201
857.2, 0.98312
857.4, 0.9818
857.6, 0.98427
857.8, 0.98576
858.0, 0.98358
858.2, 0.9822
858.4, 0.98272
858.6, 0.98582
858.8, 0.98457
859.0, 0.98289
859.2, 0.9814
859.4, 0.98319
859.6, 0.98443
859.8, 0.98243
860.0, 0.98289
860.2, 0.98398
860.4, 0.98294
860.6, 0.98286
860.8, 0.98432
861.0, 0.98428
861.2, 0.98519
861.4, 0.98481
861.6, 0.98274
861.8, 0.98229
862.0, 0.9826
862.2, 0.98512
862.4, 0.98607
862.6, 0.98436
862.8, 0.98327
863.0, 0.98072
863.2, 0.98027
863.4, 0.98173
863.6, 0.98189
863.8, 0.98313
864.0, 0.98229
864.2, 0.98344
864.4, 0.98556
864.6, 0.98395
864.8, 0.983
865.0, 0.98088
865.2, 0.98021
865.4, 0.97953
865.6, 0.97923
865.8, 0.9798
866.0, 0.98031
866.2, 0.9797
866.4, 0.9788
866.6, 0.97761
866.8, 0.97647
867.0, 0.97579
867.2, 0.97539
867.4, 0.9757
867.6, 0.97539
867.8, 0.97524
868.0, 0.97562
868.2, 0.97437
868.4, 0.97157
868.6, 0.97135
868.8, 0.97162
869.0, 0.97104
869.2, 0.97363
869.4, 0.97383
869.6, 0.97372
869.8, 0.97311
870.0, 0.97375
870.2, 0.9727
870.4, 0.97187
870.6, 0.97011
870.8, 0.97023
871.0, 0.96749
871.2, 0.96791
871.4, 0.97049
871.6, 0.97192
871.8, 0.97217
872.0, 0.97177
872.2, 0.9697
872.4, 0.96827
872.6, 0.96709
872.8, 0.96763
873.0, 0.96836
873.2, 0.9693
873.4, 0.97002
873.6, 0.96996
873.8, 0.97046
874.0, 0.97122
874.2, 0.97263
874.4, 0.97358
874.6, 0.97264
874.8, 0.97235
875.0, 0.97257
875.2, 0.97496
875.4, 0.9761
875.6, 0.97713
875.8, 0.97706
876.0, 0.97657
876.2, 0.97624
876.4, 0.97755
876.6, 0.97845
876.8, 0.97705
877.0, 0.97486
877.2, 0.97493
877.4, 0.97597
877.6, 0.97867
877.8, 0.97972
878.0, 0.98137
878.2, 0.98245
878.4, 0.98264
878.6, 0.98481
878.8, 0.98538
879.0, 0.98215
879.2, 0.98026
879.4, 0.98073
879.6, 0.9831
879.8, 0.98565
880.0, 0.98582
880.2, 0.98362
880.4, 0.98287
880.6, 0.983
880.8, 0.98255
881.0, 0.98314
881.2, 0.98374
881.4, 0.98229
881.6, 0.98133
881.8, 0.98368
882.0, 0.98365
882.2, 0.98149
882.4, 0.97883
882.6, 0.97688
882.8, 0.9773
883.0, 0.97768
883.2, 0.97637
883.4, 0.97796
883.6, 0.97769
883.8, 0.97837
884.0, 0.97998
884.2, 0.98078
884.4, 0.98064
884.6, 0.97976
884.8, 0.98007
885.0, 0.97796
885.2, 0.97641
885.4, 0.97676
885.6, 0.97777
885.8, 0.97732
886.0, 0.97682
886.2, 0.9745
886.4, 0.97479
886.6, 0.9765
886.8, 0.97771
887.0, 0.97768
887.2, 0.97537
887.4, 0.97319
887.6, 0.97346
887.8, 0.97459
888.0, 0.97646
888.2, 0.97708
888.4, 0.97684
888.6, 0.97401
888.8, 0.97084
889.0, 0.97075
889.2, 0.97196
889.4, 0.97415
889.6, 0.97361
889.8, 0.97242
890.0, 0.9718
890.2, 0.97216
890.4, 0.97099
890.6, 0.97183
890.8, 0.97156
891.0, 0.97254
891.2, 0.97312
891.4, 0.97233
891.6, 0.97253
891.8, 0.97312
892.0, 0.97276
892.2, 0.97196
892.4, 0.97163
892.6, 0.97213
892.8, 0.97353
893.0, 0.97323
893.2, 0.97219
893.4, 0.97125
893.6, 0.9728
893.8, 0.97491
894.0, 0.97456
894.2, 0.97596
894.4, 0.97672
894.6, 0.97636
894.8, 0.97634
895.0, 0.97586
895.2, 0.97511
895.4, 0.97617
895.6, 0.97758
895.8, 0.97794
896.0, 0.97804
896.2, 0.97797
896.4, 0.97562
896.6, 0.97382
896.8, 0.97355
897.0, 0.97359
897.2, 0.97458
897.4, 0.97474
897.6, 0.97625
897.8, 0.97677
898.0, 0.97706
898.2, 0.9768
898.4, 0.97721
898.6, 0.97753
898.8, 0.97757
899.0, 0.97758
899.2, 0.97964
899.4, 0.97873
899.6, 0.97817
899.8, 0.97909
900.0, 0.98117
900.2, 0.98223
900.4, 0.98274
900.6, 0.98174
900.8, 0.98019
901.0, 0.98001
901.2, 0.9809
901.4, 0.9801
901.6, 0.97972
901.8, 0.97937
902.0, 0.98079
902.2, 0.98185
902.4, 0.98284
902.6, 0.98317
902.8, 0.98375
903.0, 0.98219
903.2, 0.98333
903.4, 0.98368
903.6, 0.98276
903.8, 0.98297
904.0, 0.98129
904.2, 0.98006
904.4, 0.97746
904.6, 0.97526
904.8, 0.97667
905.0, 0.97904
905.2, 0.98171
905.4, 0.98128
905.6, 0.97997
905.8, 0.98006
906.0, 0.97969
906.2, 0.98057
906.4, 0.98235
906.6, 0.98346
906.8, 0.98455
907.0, 0.98429
907.2, 0.98405
907.4, 0.98424
907.6, 0.98442
907.8, 0.98316
908.0, 0.98151
908.2, 0.98167
908.4, 0.98164
908.6, 0.97954
908.8, 0.97841
909.0, 0.97961
909.2, 0.98111
909.4, 0.98071
909.6, 0.9772
909.8, 0.97432
910.0, 0.97314
910.2, 0.9744
910.4, 0.9747
910.6, 0.97527
910.8, 0.97648
911.0, 0.97989
911.2, 0.98131
911.4, 0.98102
911.6, 0.97935
911.8, 0.97867
912.0, 0.9762
912.2, 0.97537
912.4, 0.97699
912.6, 0.97615
912.8, 0.97403
913.0, 0.97278
913.2, 0.97227
913.4, 0.97345
913.6, 0.97404
913.8, 0.97417
914.0, 0.97414
914.2, 0.97203
914.4, 0.97208
914.6, 0.972
914.8, 0.97092
915.0, 0.97125
915.2, 0.97009
915.4, 0.96945
915.6, 0.96814
915.8, 0.96823
916.0, 0.96698
916.2, 0.96529
916.4, 0.96383
916.6, 0.96474
916.8, 0.96668
917.0, 0.96701
917.2, 0.96702
917.4, 0.96781
917.6, 0.96845
917.8, 0.96807
918.0, 0.96638
918.2, 0.96493
918.4, 0.96453
918.6, 0.96328
918.8, 0.96216
919.0, 0.96312
919.2, 0.96394
919.4, 0.96377
919.6, 0.96374
919.8, 0.96122
920.0, 0.95865
920.2, 0.95909
920.4, 0.96173
920.6, 0.96364
920.8, 0.96288
921.0, 0.9617
921.2, 0.95988
921.4, 0.95892
921.6, 0.95778
921.8, 0.95885
922.0, 0.96029
922.2, 0.96053
922.4, 0.96039
922.6, 0.95988
922.8, 0.95867
923.0, 0.95882
923.2, 0.95919
923.4, 0.95788
923.6, 0.95644
923.8, 0.95586
924.0, 0.95514
924.2, 0.95428
924.4, 0.9544
924.6, 0.95695
924.8, 0.95996
925.0, 0.95859
925.2, 0.95738
925.4, 0.95532
925.6, 0.95453
925.8, 0.95499
926.0, 0.95487
926.2, 0.95333
926.4, 0.95192
926.6, 0.95101
926.8, 0.95044
927.0, 0.95261
927.2, 0.95326
927.4, 0.95328
927.6, 0.95351
927.8, 0.95413
928.0, 0.95376
928.2, 0.95453
928.4, 0.95461
928.6, 0.95339
928.8, 0.95109
929.0, 0.95075
929.2, 0.95202
929.4, 0.95204
929.6, 0.94923
929.8, 0.94983
930.0, 0.95202
930.2, 0.95394
930.4, 0.9533
930.6, 0.9524
930.8, 0.95291
931.0, 0.95402
931.2, 0.95586
931.4, 0.95893
931.6, 0.96073
931.8, 0.96014
932.0, 0.95829
932.2, 0.95835
932.4, 0.95894
932.6, 0.95996
932.8, 0.96064
933.0, 0.95988
933.2, 0.95828
933.4, 0.95658
933.6, 0.95536
933.8, 0.95738
934.0, 0.95873
934.2, 0.95829
934.4, 0.95737
934.6, 0.95749
934.8, 0.95884
935.0, 0.95997
935.2, 0.95952
935.4, 0.95919
935.6, 0.95694
935.8, 0.95861
936.0, 0.95727
936.2, 0.95564
936.4, 0.95751
936.6, 0.96032
936.8, 0.95932
937.0, 0.95707
937.2, 0.9553
937.4, 0.95676
937.6, 0.95696
937.8, 0.95542
938.0, 0.95673
938.2, 0.95892
938.4, 0.95643
938.6, 0.95629
938.8, 0.95616
939.0, 0.9544
939.2, 0.95233
939.4, 0.95158
939.6, 0.95161
939.8, 0.95325
940.0, 0.95366
940.2, 0.95476
940.4, 0.95403
940.6, 0.95453
940.8, 0.95329
941.0, 0.95146
941.2, 0.95179
941.4, 0.9522
941.6, 0.95387
941.8, 0.95274
942.0, 0.95303
942.2, 0.95364
942.4, 0.95152
942.6, 0.95272
942.8, 0.95335
943.0, 0.95106
943.2, 0.95148
943.4, 0.95482
943.6, 0.95507
943.8, 0.95554
944.0, 0.95413
944.2, 0.95291
944.4, 0.95233
944.6, 0.95268
944.8, 0.95473
945.0, 0.95545
945.2, 0.95621
945.4, 0.95721
945.6, 0.95922
945.8, 0.95875
946.0, 0.96004
946.2, 0.96005
946.4, 0.95842
946.6, 0.95725
946.8, 0.95671
947.0, 0.95743
947.2, 0.95851
947.4, 0.95863
947.6, 0.95979
947.8, 0.95986
948.0, 0.95909
948.2, 0.95953
948.4, 0.95777
948.6, 0.95857
948.8, 0.96024
949.0, 0.96077
949.2, 0.96057
949.4, 0.96108
949.6, 0.96068
949.8, 0.96118
950.0, 0.95874
950.2, 0.9581
950.4, 0.96
950.6, 0.96185
950.8, 0.96285
951.0, 0.96465
951.2, 0.96377
951.4, 0.96346
951.6, 0.96243
951.8, 0.96247
952.0, 0.96013
952.2, 0.95918
952.4, 0.95895
952.6, 0.96027
952.8, 0.96111
953.0, 0.96031
953.2, 0.96028
953.4, 0.95964
953.6, 0.95861
953.8, 0.95771
954.0, 0.95883
954.2, 0.95972
954.4, 0.95957
954.6, 0.95891
954.8, 0.9571
955.0, 0.95509
955.2, 0.95402
955.4, 0.95456
955.6, 0.95353
955.8, 0.95146
956.0, 0.94972
956.2, 0.95186
956.4, 0.95284
956.6, 0.95242
956.8, 0.95157
957.0, 0.95017
957.2, 0.94911
957.4, 0.94691
957.6, 0.94692
957.8, 0.94875
958.0, 0.9468
958.2, 0.94326
958.4, 0.94019
958.6, 0.9385
958.8, 0.93756
959.0, 0.93507
959.2, 0.93509
959.4, 0.93222
959.6, 0.93178
959.8, 0.93053
960.0, 0.92982